Data from HR4D30811__14__00014.txt Node

Date: Fri Jan 26 16:33:34 MST 2024
User: Brock
Spectrometer: HR4D3081
Trigger mode: 4
Integration Time (sec): 8.000000E0
Scans to average: 1
Electric dark correction enabled: true
Nonlinearity correction enabled: false
Boxcar width: 0
XAxis mode: Wavelengths
Number of Pixels in Spectrum: 3648
>>>>>Begin Spectral Data<<<<<
197.25	-1284.15
197.385	-1284.15
197.519	-1284.15
197.653	-1211.15
197.787	197.85
197.922	-136.15
198.056	68.85
198.19	-12.15
198.324	16.85
198.459	-210.15
198.593	412.85
198.727	-38.15
198.861	-73.15
198.996	206.85
199.13	-271.15
199.264	-203.15
199.398	-39.15
199.533	277.85
199.667	121.85
199.801	-39.15
199.935	-241.15
200.07	-42.15
200.204	-29.15
200.338	-170.15
200.472	-164.15
200.606	-343.15
200.741	-166.15
200.875	-149.15
201.009	-133.15
201.143	-228.15
201.277	93.85
201.412	109.85
201.546	231.85
201.68	152.85
201.814	-184.15
201.948	65.85
202.082	-62.15
202.217	-332.15
202.351	-138.15
202.485	-91.15
202.619	-251.15
202.753	-345.15
202.887	259.85
203.021	100.85
203.156	244.85
203.29	85.85
203.424	-35.15
203.558	-203.15
203.692	-88.15
203.826	-327.15
203.96	-113.15
204.094	171.85
204.229	-161.15
204.363	-184.15
204.497	-332.15
204.631	-282.15
204.765	-207.15
204.899	-146.15
205.033	-158.15
205.167	-220.15
205.301	-8.15
205.435	-309.15
205.569	-91.15
205.704	-90.15
205.838	-304.15
205.972	-146.15
206.106	510.85
206.24	-151.15
206.374	-229.15
206.508	26.85
206.642	26.85
206.776	-100.15
206.91	167.85
207.044	10.85
207.178	112.85
207.312	-17.15
207.446	-156.15
207.58	-160.15
207.714	-272.15
207.848	137.85
207.982	-354.15
208.116	32.85
208.25	-246.15
208.384	-163.15
208.518	-171.15
208.652	-235.15
208.786	-261.15
208.92	222.85
209.054	-55.15
209.188	-281.15
209.322	-124.15
209.456	-117.15
209.59	-268.15
209.724	-151.15
209.858	-38.15
209.992	-111.15
210.126	-168.15
210.26	-171.15
210.394	-65.15
210.528	-38.15
210.662	-190.15
210.796	-154.15
210.929	96.85
211.063	-7.15
211.197	-55.15
211.331	-32.15
211.465	-189.15
211.599	79.85
211.733	116.85
211.867	-196.15
212.001	-188.15
212.135	-62.15
212.269	-250.15
212.402	-215.15
212.536	73.85
212.67	-110.15
212.804	-263.15
212.938	75.85
213.072	-213.15
213.206	-86.15
213.34	-169.15
213.473	-144.15
213.607	90.85
213.741	-276.15
213.875	-285.15
214.009	-198.15
214.143	-153.15
214.277	-128.15
214.41	-238.15
214.544	222.85
214.678	138.85
214.812	271.85
214.946	-243.15
215.08	-179.15
215.213	-214.15
215.347	-140.15
215.481	-65.15
215.615	-340.15
215.749	11.85
215.882	-249.15
216.016	-295.15
216.15	74.85
216.284	181.85
216.418	-7.15
216.551	76.85
216.685	9.85
216.819	-275.15
216.953	-157.15
217.086	278.85
217.22	-181.15
217.354	7.85
217.488	79.85
217.621	93.85
217.755	-38.15
217.889	-137.15
218.023	-84.15
218.156	86.85
218.29	66.85
218.424	179.85
218.558	-247.15
218.691	-393.15
218.825	-144.15
218.959	381.85
219.092	-171.15
219.226	-321.15
219.36	-294.15
219.494	-51.15
219.627	-177.15
219.761	-230.15
219.895	-96.15
220.028	-280.15
220.162	532.85
220.296	116.85
220.429	-32.15
220.563	-93.15
220.697	-24.15
220.83	-210.15
220.964	-184.15
221.098	-274.15
221.231	-273.15
221.365	81.85
221.499	-236.15
221.632	-238.15
221.766	51.85
221.9	-102.15
222.033	54.85
222.167	80.85
222.3	-198.15
222.434	-28.15
222.568	239.85
222.701	-185.15
222.835	-130.15
222.968	-292.15
223.102	-229.15
223.236	-268.15
223.369	16.85
223.503	8.85
223.636	-232.15
223.77	-165.15
223.904	10.85
224.037	-181.15
224.171	82.85
224.304	22.85
224.438	-166.15
224.571	-107.15
224.705	145.85
224.839	-20.15
224.972	-335.15
225.106	-35.15
225.239	-67.15
225.373	71.85
225.506	-32.15
225.64	61.85
225.773	-152.15
225.907	-197.15
226.04	-291.15
226.174	-122.15
226.307	-62.15
226.441	-144.15
226.575	-4.15
226.708	141.85
226.842	-93.15
226.975	-146.15
227.109	-236.15
227.242	-8.15
227.375	9.85
227.509	-38.15
227.642	-192.15
227.776	55.85
227.909	43.85
228.043	-209.15
228.176	178.85
228.31	-259.15
228.443	309.85
228.577	-53.15
228.71	-111.15
228.844	-3.15
228.977	-280.15
229.111	-161.15
229.244	59.85
229.377	-292.15
229.511	-32.15
229.644	-171.15
229.778	-167.15
229.911	-203.15
230.044	-115.15
230.178	-37.15
230.311	-193.15
230.445	-5.15
230.578	-214.15
230.711	-77.15
230.845	341.85
230.978	41.85
231.112	-216.15
231.245	-258.15
231.378	-214.15
231.512	46.85
231.645	-437.15
231.779	-341.15
231.912	-76.15
232.045	49.85
232.179	-192.15
232.312	-141.15
232.445	90.85
232.579	243.85
232.712	114.85
232.845	-160.15
232.979	-353.15
233.112	47.85
233.245	-85.15
233.379	-277.15
233.512	-36.15
233.645	-273.15
233.779	-259.15
233.912	11.85
234.045	-170.15
234.179	-6.15
234.312	-136.15
234.445	26.85
234.578	-32.15
234.712	27.85
234.845	59.85
234.978	-170.15
235.112	-80.15
235.245	119.85
235.378	-191.15
235.511	-22.15
235.645	11.85
235.778	12.85
235.911	-177.15
236.044	-320.15
236.178	266.85
236.311	-263.15
236.444	-247.15
236.577	-240.15
236.711	-55.15
236.844	-403.15
236.977	-170.15
237.11	-193.15
237.243	26.85
237.377	-281.15
237.51	-218.15
237.643	952.85
237.776	-143.15
237.909	-150.15
238.043	-31.15
238.176	-243.15
238.309	-84.15
238.442	-319.15
238.575	-72.15
238.709	398.85
238.842	18.85
238.975	-42.15
239.108	144.85
239.241	-280.15
239.374	-227.15
239.508	-180.15
239.641	189.85
239.774	354.85
239.907	-71.15
240.04	-280.15
240.173	37.85
240.306	221.85
240.44	-164.15
240.573	151.85
240.706	-134.15
240.839	24.85
240.972	-69.15
241.105	-42.15
241.238	21.85
241.371	-37.15
241.504	-53.15
241.638	-128.15
241.771	-51.15
241.904	-160.15
242.037	59.85
242.17	-210.15
242.303	-287.15
242.436	-103.15
242.569	-110.15
242.702	-212.15
242.835	-188.15
242.968	-23.15
243.101	-131.15
243.234	-252.15
243.367	-272.15
243.5	-112.15
243.634	-212.15
243.767	-297.15
243.9	-222.15
244.033	-246.15
244.166	80.85
244.299	-339.15
244.432	-259.15
244.565	-11.15
244.698	-374.15
244.831	-179.15
244.964	-258.15
245.097	-221.15
245.23	2.85
245.363	146.85
245.496	-298.15
245.629	-154.15
245.762	442.85
245.895	-273.15
246.028	-219.15
246.161	410.85
246.294	33.85
246.427	-237.15
246.559	85.85
246.692	-74.15
246.825	-154.15
246.958	-245.15
247.091	-276.15
247.224	-346.15
247.357	-218.15
247.49	117.85
247.623	-194.15
247.756	-237.15
247.889	270.85
248.022	-110.15
248.155	-285.15
248.288	-88.15
248.421	-225.15
248.553	88.85
248.686	-225.15
248.819	90.85
248.952	-269.15
249.085	151.85
249.218	-49.15
249.351	-114.15
249.484	154.85
249.617	-89.15
249.749	-261.15
249.882	-222.15
250.015	-251.15
250.148	-156.15
250.281	-264.15
250.414	-169.15
250.547	-171.15
250.679	194.85
250.812	-108.15
250.945	-1.15
251.078	-264.15
251.211	-168.15
251.344	-273.15
251.476	-170.15
251.609	21.85
251.742	-288.15
251.875	-37.15
252.008	-223.15
252.14	-342.15
252.273	-117.15
252.406	179.85
252.539	-43.15
252.672	-76.15
252.804	151.85
252.937	-279.15
253.07	-31.15
253.203	-110.15
253.335	82.85
253.468	-369.15
253.601	-187.15
253.734	-67.15
253.866	-130.15
253.999	360.85
254.132	-10.15
254.265	-161.15
254.397	-180.15
254.53	-135.15
254.663	21.85
254.796	-201.15
254.928	-267.15
255.061	-228.15
255.194	-67.15
255.327	-310.15
255.459	-54.15
255.592	-286.15
255.725	191.85
255.857	-217.15
255.99	-6.15
256.123	-231.15
256.255	-261.15
256.388	-30.15
256.521	-247.15
256.653	-308.15
256.786	-254.15
256.919	-163.15
257.051	-247.15
257.184	-33.15
257.317	-204.15
257.449	-238.15
257.582	-100.15
257.715	-199.15
257.847	-233.15
257.98	-128.15
258.113	-193.15
258.245	-128.15
258.378	-366.15
258.51	-259.15
258.643	-248.15
258.776	32.85
258.908	-267.15
259.041	-37.15
259.174	-215.15
259.306	-218.15
259.439	-294.15
259.571	-187.15
259.704	-141.15
259.837	176.85
259.969	-222.15
260.102	-235.15
260.234	211.85
260.367	58.85
260.499	-241.15
260.632	-150.15
260.765	-212.15
260.897	-224.15
261.03	-238.15
261.162	-66.15
261.295	-60.15
261.427	99.85
261.56	-96.15
261.692	-256.15
261.825	-82.15
261.957	75.85
262.09	117.85
262.222	36.85
262.355	-278.15
262.487	-143.15
262.62	-284.15
262.752	-85.15
262.885	-178.15
263.017	23.85
263.15	-202.15
263.282	-86.15
263.415	-254.15
263.547	-34.15
263.68	201.85
263.812	-312.15
263.945	-115.15
264.077	-270.15
264.21	143.85
264.342	-263.15
264.475	-248.15
264.607	169.85
264.74	-391.15
264.872	-87.15
265.004	130.85
265.137	86.85
265.269	339.85
265.402	-249.15
265.534	-196.15
265.667	-177.15
265.799	76.85
265.931	-72.15
266.064	7.85
266.196	-155.15
266.329	-195.15
266.461	-175.15
266.593	9.85
266.726	-317.15
266.858	-142.15
266.99	-95.15
267.123	-147.15
267.255	-49.15
267.388	-125.15
267.52	-257.15
267.652	-211.15
267.785	149.85
267.917	-31.15
268.049	-132.15
268.182	400.85
268.314	59.85
268.446	-336.15
268.579	-225.15
268.711	199.85
268.843	-202.15
268.976	-95.15
269.108	366.85
269.24	150.85
269.373	-30.15
269.505	-173.15
269.637	-146.15
269.77	-215.15
269.902	150.85
270.034	-264.15
270.167	43.85
270.299	-2.15
270.431	7.85
270.563	-190.15
270.696	-9.15
270.828	-106.15
270.96	-79.15
271.092	2.85
271.225	-257.15
271.357	-74.15
271.489	-186.15
271.621	-256.15
271.754	525.85
271.886	-216.15
272.018	-203.15
272.15	243.85
272.283	-282.15
272.415	-176.15
272.547	60.85
272.679	74.85
272.811	-94.15
272.944	-105.15
273.076	-353.15
273.208	-21.15
273.34	-78.15
273.473	-132.15
273.605	69.85
273.737	-290.15
273.869	-38.15
274.001	-404.15
274.133	3.85
274.266	-206.15
274.398	1473.85
274.53	38.85
274.662	144.85
274.794	8.85
274.926	56.85
275.059	-195.15
275.191	-3.15
275.323	-238.15
275.455	94.85
275.587	-230.15
275.719	-163.15
275.851	-111.15
275.983	32.85
276.116	-24.15
276.248	61.85
276.38	-273.15
276.512	-26.15
276.644	-184.15
276.776	-237.15
276.908	-20.15
277.04	-117.15
277.172	53.85
277.304	-187.15
277.437	-16.15
277.569	-200.15
277.701	-234.15
277.833	-108.15
277.965	-190.15
278.097	61.85
278.229	-192.15
278.361	-188.15
278.493	147.85
278.625	217.85
278.757	20.85
278.889	-250.15
279.021	-176.15
279.153	505.85
279.285	-226.15
279.417	558.85
279.549	71.85
279.681	-103.15
279.813	-193.15
279.945	28.85
280.077	-231.15
280.209	1080.85
280.341	-278.15
280.473	-152.15
280.605	64.85
280.737	-29.15
280.869	192.85
281.001	-51.15
281.133	-327.15
281.265	-31.15
281.397	-139.15
281.529	279.85
281.661	-247.15
281.793	-372.15
281.925	-227.15
282.057	-124.15
282.189	-170.15
282.321	-33.15
282.453	23.85
282.585	-258.15
282.717	138.85
282.849	-76.15
282.98	-170.15
283.112	-210.15
283.244	-3.15
283.376	-255.15
283.508	-365.15
283.64	-248.15
283.772	90.85
283.904	104.85
284.036	-320.15
284.168	119.85
284.299	-51.15
284.431	-20.15
284.563	-134.15
284.695	-148.15
284.827	-244.15
284.959	-46.15
285.091	-235.15
285.222	-279.15
285.354	-192.15
285.486	-122.15
285.618	-228.15
285.75	-146.15
285.882	187.85
286.013	81.85
286.145	-61.15
286.277	-3.15
286.409	87.85
286.541	63.85
286.673	-215.15
286.804	-225.15
286.936	-75.15
287.068	-231.15
287.2	-235.15
287.332	299.85
287.463	-324.15
287.595	-56.15
287.727	428.85
287.859	-103.15
287.99	-131.15
288.122	-202.15
288.254	23.85
288.386	-160.15
288.517	-270.15
288.649	-141.15
288.781	-27.15
288.913	-26.15
289.044	-275.15
289.176	184.85
289.308	-183.15
289.44	-339.15
289.571	-223.15
289.703	-252.15
289.835	12.85
289.967	-252.15
290.098	-324.15
290.23	-289.15
290.362	86.85
290.493	-334.15
290.625	-198.15
290.757	-185.15
290.888	-120.15
291.02	-36.15
291.152	-36.15
291.283	-16.15
291.415	-152.15
291.547	-248.15
291.678	-223.15
291.81	-0.15
291.942	267.85
292.073	-34.15
292.205	-289.15
292.337	53.85
292.468	504.85
292.6	-209.15
292.732	615.85
292.863	-236.15
292.995	-319.15
293.126	24.85
293.258	172.85
293.39	-277.15
293.521	-268.15
293.653	-317.15
293.785	58.85
293.916	-146.15
294.048	34.85
294.179	-10.15
294.311	-257.15
294.442	40.85
294.574	-281.15
294.706	-121.15
294.837	83.85
294.969	-81.15
295.1	-199.15
295.232	-246.15
295.363	203.85
295.495	-201.15
295.627	5.85
295.758	106.85
295.89	-339.15
296.021	17.85
296.153	40.85
296.284	-67.15
296.416	-107.15
296.547	-160.15
296.679	-69.15
296.81	-39.15
296.942	-334.15
297.073	-266.15
297.205	-273.15
297.336	-184.15
297.468	-241.15
297.599	-87.15
297.731	-349.15
297.862	-115.15
297.994	-319.15
298.125	-254.15
298.257	-121.15
298.388	22.85
298.52	6.85
298.651	-96.15
298.782	271.85
298.914	-280.15
299.045	-154.15
299.177	-325.15
299.308	-324.15
299.44	7.85
299.571	-56.15
299.702	-127.15
299.834	-104.15
299.965	-151.15
300.097	-229.15
300.228	-33.15
300.36	-60.15
300.491	-73.15
300.622	-6.15
300.754	-117.15
300.885	-229.15
301.017	-60.15
301.148	-191.15
301.279	-313.15
301.411	-19.15
301.542	-71.15
301.673	-45.15
301.805	21.85
301.936	-235.15
302.067	-151.15
302.199	-168.15
302.33	-273.15
302.461	316.85
302.593	-6.15
302.724	-30.15
302.855	-301.15
302.987	-111.15
303.118	-295.15
303.249	-338.15
303.381	-136.15
303.512	-220.15
303.643	-194.15
303.775	97.85
303.906	-243.15
304.037	-251.15
304.169	-231.15
304.3	-146.15
304.431	-314.15
304.562	-186.15
304.694	-146.15
304.825	-72.15
304.956	132.85
305.087	-172.15
305.219	-1.15
305.35	-59.15
305.481	-202.15
305.612	29.85
305.744	24.85
305.875	-162.15
306.006	504.85
306.137	-207.15
306.269	-60.15
306.4	29.85
306.531	115.85
306.662	-140.15
306.794	106.85
306.925	-204.15
307.056	-286.15
307.187	-16.15
307.318	-117.15
307.45	-157.15
307.581	-244.15
307.712	-255.15
307.843	-119.15
307.974	-56.15
308.105	94.85
308.237	-74.15
308.368	-306.15
308.499	-181.15
308.63	-19.15
308.761	-124.15
308.892	-119.15
309.024	-145.15
309.155	-207.15
309.286	-190.15
309.417	-278.15
309.548	-178.15
309.679	-163.15
309.81	-388.15
309.941	464.85
310.073	-30.15
310.204	-344.15
310.335	-53.15
310.466	-183.15
310.597	-276.15
310.728	-152.15
310.859	357.85
310.99	285.85
311.121	-131.15
311.252	-103.15
311.383	-257.15
311.514	-21.15
311.646	-184.15
311.777	-31.15
311.908	-79.15
312.039	-144.15
312.17	-336.15
312.301	-121.15
312.432	-228.15
312.563	-349.15
312.694	-47.15
312.825	-168.15
312.956	-225.15
313.087	78.85
313.218	52.85
313.349	-150.15
313.48	-342.15
313.611	-110.15
313.742	-91.15
313.873	44.85
314.004	-85.15
314.135	-186.15
314.266	-48.15
314.397	-185.15
314.528	-292.15
314.659	-294.15
314.79	-211.15
314.921	55.85
315.052	27.85
315.183	-262.15
315.314	-316.15
315.445	40.85
315.576	-69.15
315.707	-128.15
315.838	-200.15
315.968	-33.15
316.099	-285.15
316.23	-314.15
316.361	53.85
316.492	-145.15
316.623	45.85
316.754	171.85
316.885	-379.15
317.016	-292.15
317.147	-368.15
317.278	80.85
317.408	-247.15
317.539	-308.15
317.67	-283.15
317.801	-14.15
317.932	-167.15
318.063	-218.15
318.194	-158.15
318.325	-13.15
318.455	-363.15
318.586	-159.15
318.717	-43.15
318.848	-331.15
318.979	89.85
319.11	244.85
319.24	5.85
319.371	63.85
319.502	-146.15
319.633	-205.15
319.764	-140.15
319.895	-243.15
320.025	-93.15
320.156	-276.15
320.287	-422.15
320.418	-217.15
320.549	-59.15
320.679	-337.15
320.81	123.85
320.941	-326.15
321.072	-309.15
321.202	-2.15
321.333	252.85
321.464	-374.15
321.595	-232.15
321.726	205.85
321.856	-346.15
321.987	-167.15
322.118	-228.15
322.249	-8.15
322.379	-98.15
322.51	-19.15
322.641	-96.15
322.771	-347.15
322.902	-91.15
323.033	-84.15
323.164	688.85
323.294	-174.15
323.425	-199.15
323.556	-218.15
323.686	-129.15
323.817	281.85
323.948	-14.15
324.078	-166.15
324.209	157.85
324.34	-195.15
324.47	183.85
324.601	-213.15
324.732	-75.15
324.862	22.85
324.993	-210.15
325.124	-431.15
325.254	-92.15
325.385	-52.15
325.516	507.85
325.646	402.85
325.777	-149.15
325.908	-171.15
326.038	39.85
326.169	-149.15
326.299	-62.15
326.43	115.85
326.561	-141.15
326.691	-141.15
326.822	-279.15
326.952	-230.15
327.083	-77.15
327.214	-231.15
327.344	-75.15
327.475	-36.15
327.605	-55.15
327.736	-150.15
327.867	-302.15
327.997	-153.15
328.128	-63.15
328.258	-325.15
328.389	252.85
328.519	-277.15
328.65	3.85
328.78	-224.15
328.911	-51.15
329.041	88.85
329.172	-341.15
329.303	-218.15
329.433	-171.15
329.564	-261.15
329.694	-263.15
329.825	-219.15
329.955	-46.15
330.086	435.85
330.216	-153.15
330.347	-269.15
330.477	-153.15
330.608	-137.15
330.738	-115.15
330.868	-296.15
330.999	-163.15
331.129	122.85
331.26	-246.15
331.39	-211.15
331.521	155.85
331.651	18.85
331.782	-347.15
331.912	-282.15
332.043	-264.15
332.173	56.85
332.303	-336.15
332.434	79.85
332.564	-32.15
332.695	-217.15
332.825	-329.15
332.956	-190.15
333.086	-92.15
333.216	-244.15
333.347	-66.15
333.477	-400.15
333.608	-85.15
333.738	6.85
333.868	-112.15
333.999	-84.15
334.129	82.85
334.259	-52.15
334.39	-230.15
334.52	49.85
334.65	-194.15
334.781	128.85
334.911	-212.15
335.042	-267.15
335.172	-57.15
335.302	-120.15
335.433	235.85
335.563	-264.15
335.693	9.85
335.824	236.85
335.954	-386.15
336.084	-41.15
336.214	-67.15
336.345	304.85
336.475	72.85
336.605	-234.15
336.736	343.85
336.866	-103.15
336.996	-179.15
337.126	-297.15
337.257	-85.15
337.387	-365.15
337.517	-232.15
337.648	-343.15
337.778	161.85
337.908	82.85
338.038	-6.15
338.169	-161.15
338.299	230.85
338.429	-39.15
338.559	-234.15
338.69	-182.15
338.82	364.85
338.95	-45.15
339.08	-451.15
339.21	-306.15
339.341	-110.15
339.471	38.85
339.601	-117.15
339.731	-43.15
339.861	-134.15
339.992	-140.15
340.122	-129.15
340.252	-194.15
340.382	-220.15
340.512	-101.15
340.642	142.85
340.773	-58.15
340.903	-303.15
341.033	-94.15
341.163	-43.15
341.293	95.85
341.423	-213.15
341.554	-293.15
341.684	-29.15
341.814	-133.15
341.944	-154.15
342.074	-100.15
342.204	-175.15
342.334	178.85
342.464	-259.15
342.595	-192.15
342.725	-286.15
342.855	-45.15
342.985	-165.15
343.115	-270.15
343.245	-382.15
343.375	-13.15
343.505	-108.15
343.635	-34.15
343.765	-227.15
343.895	-385.15
344.025	31.85
344.155	-303.15
344.286	-214.15
344.416	-70.15
344.546	79.85
344.676	-83.15
344.806	129.85
344.936	-52.15
345.066	196.85
345.196	-226.15
345.326	-299.15
345.456	84.85
345.586	-261.15
345.716	-278.15
345.846	0.85
345.976	-358.15
346.106	-123.15
346.236	47.85
346.366	0.85
346.496	-192.15
346.626	-177.15
346.756	-213.15
346.886	-263.15
347.016	-348.15
347.146	-229.15
347.276	-237.15
347.406	-215.15
347.536	-61.15
347.666	84.85
347.795	-251.15
347.925	-158.15
348.055	115.85
348.185	-175.15
348.315	-183.15
348.445	82.85
348.575	-191.15
348.705	-269.15
348.835	-281.15
348.965	-150.15
349.095	-15.15
349.225	253.85
349.354	-255.15
349.484	-178.15
349.614	-167.15
349.744	-243.15
349.874	-230.15
350.004	-352.15
350.134	-274.15
350.264	-330.15
350.393	-295.15
350.523	132.85
350.653	-333.15
350.783	52.85
350.913	114.85
351.043	-221.15
351.173	-196.15
351.302	-18.15
351.432	192.85
351.562	-111.15
351.692	-102.15
351.822	-167.15
351.951	-366.15
352.081	192.85
352.211	-105.15
352.341	157.85
352.471	132.85
352.6	-155.15
352.73	-207.15
352.86	-156.15
352.99	-53.15
353.12	-73.15
353.249	-32.15
353.379	-253.15
353.509	77.85
353.639	-296.15
353.768	-93.15
353.898	-198.15
354.028	-313.15
354.158	-175.15
354.287	-199.15
354.417	-281.15
354.547	-274.15
354.677	-372.15
354.806	-151.15
354.936	-9.15
355.066	-226.15
355.195	-28.15
355.325	-51.15
355.455	-231.15
355.584	187.85
355.714	-265.15
355.844	104.85
355.974	-15.15
356.103	-96.15
356.233	-175.15
356.363	45.85
356.492	-250.15
356.622	-311.15
356.752	-30.15
356.881	-364.15
357.011	53.85
357.14	115.85
357.27	-167.15
357.4	56.85
357.529	-149.15
357.659	111.85
357.789	3.85
357.918	-287.15
358.048	-319.15
358.177	-122.15
358.307	-241.15
358.437	-79.15
358.566	-256.15
358.696	70.85
358.825	115.85
358.955	-285.15
359.085	39.85
359.214	-407.15
359.344	-109.15
359.473	-298.15
359.603	-153.15
359.733	-230.15
359.862	-327.15
359.992	73.85
360.121	-196.15
360.251	3.85
360.38	-309.15
360.51	76.85
360.639	-165.15
360.769	-65.15
360.898	93.85
361.028	40.85
361.157	-79.15
361.287	-62.15
361.416	-283.15
361.546	-134.15
361.675	-140.15
361.805	-199.15
361.934	12.85
362.064	-160.15
362.193	-210.15
362.323	-305.15
362.452	83.85
362.582	-261.15
362.711	-167.15
362.841	9.85
362.97	-8.15
363.1	-266.15
363.229	-338.15
363.359	-130.15
363.488	-220.15
363.617	-114.15
363.747	-99.15
363.876	-373.15
364.006	-9.15
364.135	-116.15
364.265	-141.15
364.394	-186.15
364.523	265.85
364.653	-261.15
364.782	22.85
364.912	-253.15
365.041	-287.15
365.17	-261.15
365.3	57.85
365.429	186.85
365.558	-152.15
365.688	-224.15
365.817	-258.15
365.947	-64.15
366.076	-73.15
366.205	-85.15
366.335	-353.15
366.464	-266.15
