Data from HR4D30811__9__00009.txt Node

Date: Fri Jan 26 16:32:38 MST 2024
User: Brock
Spectrometer: HR4D3081
Trigger mode: 4
Integration Time (sec): 8.000000E0
Scans to average: 1
Electric dark correction enabled: true
Nonlinearity correction enabled: false
Boxcar width: 0
XAxis mode: Wavelengths
Number of Pixels in Spectrum: 3648
>>>>>Begin Spectral Data<<<<<
197.25	-1201.85
197.385	-1201.85
197.519	-1201.85
197.653	-1225.85
197.787	194.15
197.922	-131.85
198.056	81.15
198.19	17.15
198.324	23.15
198.459	-217.85
198.593	445.15
198.727	-36.85
198.861	-79.85
198.996	189.15
199.13	-291.85
199.264	-198.85
199.398	-62.85
199.533	264.15
199.667	116.15
199.801	-60.85
199.935	-267.85
200.07	4.15
200.204	-10.85
200.338	-166.85
200.472	-174.85
200.606	-314.85
200.741	-151.85
200.875	-118.85
201.009	-111.85
201.143	-225.85
201.277	104.15
201.412	76.15
201.546	255.15
201.68	150.15
201.814	-163.85
201.948	51.15
202.082	-81.85
202.217	-307.85
202.351	-151.85
202.485	-42.85
202.619	-235.85
202.753	-353.85
202.887	291.15
203.021	99.15
203.156	202.15
203.29	39.15
203.424	-32.85
203.558	-187.85
203.692	-64.85
203.826	-286.85
203.96	-76.85
204.094	164.15
204.229	-167.85
204.363	-208.85
204.497	-311.85
204.631	-297.85
204.765	-217.85
204.899	-138.85
205.033	-146.85
205.167	-239.85
205.301	21.15
205.435	-306.85
205.569	-92.85
205.704	-70.85
205.838	-313.85
205.972	-150.85
206.106	526.15
206.24	-136.85
206.374	-219.85
206.508	-3.85
206.642	37.15
206.776	-105.85
206.91	192.15
207.044	9.15
207.178	82.15
207.312	-10.85
207.446	-155.85
207.58	-151.85
207.714	-244.85
207.848	150.15
207.982	-374.85
208.116	44.15
208.25	-227.85
208.384	-158.85
208.518	-169.85
208.652	-230.85
208.786	-267.85
208.92	196.15
209.054	-55.85
209.188	-287.85
209.322	-120.85
209.456	-134.85
209.59	-275.85
209.724	-53.85
209.858	-27.85
209.992	-103.85
210.126	-169.85
210.26	-156.85
210.394	-91.85
210.528	-31.85
210.662	-202.85
210.796	-149.85
210.929	125.15
211.063	-3.85
211.197	-49.85
211.331	0.15
211.465	-224.85
211.599	60.15
211.733	124.15
211.867	-222.85
212.001	-198.85
212.135	-52.85
212.269	-220.85
212.402	-217.85
212.536	76.15
212.67	-127.85
212.804	-246.85
212.938	75.15
213.072	-218.85
213.206	-98.85
213.34	-183.85
213.473	-158.85
213.607	100.15
213.741	-279.85
213.875	-269.85
214.009	-230.85
214.143	-165.85
214.277	-139.85
214.41	-215.85
214.544	261.15
214.678	131.15
214.812	276.15
214.946	-255.85
215.08	-187.85
215.213	-207.85
215.347	-115.85
215.481	-69.85
215.615	-339.85
215.749	1.15
215.882	-228.85
216.016	-299.85
216.15	80.15
216.284	191.15
216.418	2.15
216.551	117.15
216.685	9.15
216.819	-258.85
216.953	-160.85
217.086	242.15
217.22	-179.85
217.354	-35.85
217.488	80.15
217.621	97.15
217.755	-36.85
217.889	-145.85
218.023	-71.85
218.156	85.15
218.29	32.15
218.424	166.15
218.558	-267.85
218.691	-382.85
218.825	-120.85
218.959	395.15
219.092	-107.85
219.226	-322.85
219.36	-298.85
219.494	-76.85
219.627	-182.85
219.761	-205.85
219.895	-97.85
220.028	-310.85
220.162	494.15
220.296	138.15
220.429	-15.85
220.563	-58.85
220.697	-27.85
220.83	-224.85
220.964	-176.85
221.098	-271.85
221.231	-236.85
221.365	76.15
221.499	-232.85
221.632	-233.85
221.766	-12.85
221.9	-91.85
222.033	74.15
222.167	94.15
222.3	-212.85
222.434	-46.85
222.568	275.15
222.701	-160.85
222.835	-126.85
222.968	-234.85
223.102	-217.85
223.236	-267.85
223.369	5.15
223.503	8.15
223.636	-255.85
223.77	-178.85
223.904	22.15
224.037	-176.85
224.171	71.15
224.304	0.15
224.438	-187.85
224.571	-107.85
224.705	155.15
224.839	-46.85
224.972	-330.85
225.106	-38.85
225.239	-73.85
225.373	60.15
225.506	-54.85
225.64	81.15
225.773	-124.85
225.907	-197.85
226.04	-338.85
226.174	-104.85
226.307	-68.85
226.441	-130.85
226.575	11.15
226.708	159.15
226.842	-116.85
226.975	-152.85
227.109	-211.85
227.242	-11.85
227.375	43.15
227.509	-33.85
227.642	-161.85
227.776	31.15
227.909	45.15
228.043	-233.85
228.176	229.15
228.31	-262.85
228.443	329.15
228.577	-71.85
228.71	-138.85
228.844	-17.85
228.977	-263.85
229.111	-171.85
229.244	25.15
229.377	-338.85
229.511	-23.85
229.644	-170.85
229.778	-190.85
229.911	-204.85
230.044	-111.85
230.178	-55.85
230.311	-245.85
230.445	33.15
230.578	-200.85
230.711	-99.85
230.845	297.15
230.978	76.15
231.112	-235.85
231.245	-212.85
231.378	-222.85
231.512	67.15
231.645	-396.85
231.779	-341.85
231.912	-33.85
232.045	58.15
232.179	-215.85
232.312	-128.85
232.445	103.15
232.579	280.15
232.712	157.15
232.845	-155.85
232.979	-382.85
233.112	72.15
233.245	-129.85
233.379	-333.85
233.512	-32.85
233.645	-242.85
233.779	-258.85
233.912	41.15
234.045	-149.85
234.179	43.15
234.312	-174.85
234.445	15.15
234.578	-30.85
234.712	-10.85
234.845	55.15
234.978	-201.85
235.112	-66.85
235.245	101.15
235.378	-167.85
235.511	-49.85
235.645	35.15
235.778	14.15
235.911	-164.85
236.044	-308.85
236.178	287.15
236.311	-259.85
236.444	-243.85
236.577	-242.85
236.711	-54.85
236.844	-418.85
236.977	-139.85
237.11	-200.85
237.243	20.15
237.377	-277.85
237.51	-233.85
237.643	949.15
237.776	-153.85
237.909	-144.85
238.043	-32.85
238.176	-234.85
238.309	-71.85
238.442	-311.85
238.575	-78.85
238.709	414.15
238.842	-24.85
238.975	-7.85
239.108	165.15
239.241	-297.85
239.374	-255.85
239.508	-212.85
239.641	210.15
239.774	344.15
239.907	-70.85
240.04	-296.85
240.173	32.15
240.306	223.15
240.44	-184.85
240.573	152.15
240.706	-154.85
240.839	16.15
240.972	-79.85
241.105	-43.85
241.238	27.15
241.371	-30.85
241.504	-31.85
241.638	-120.85
241.771	-22.85
241.904	-176.85
242.037	36.15
242.17	-150.85
242.303	-353.85
242.436	-84.85
242.569	-114.85
242.702	-191.85
242.835	-175.85
242.968	-9.85
243.101	-114.85
243.234	-224.85
243.367	-252.85
243.5	-124.85
243.634	-175.85
243.767	-325.85
243.9	-248.85
244.033	-254.85
244.166	78.15
244.299	-302.85
244.432	-230.85
244.565	-17.85
244.698	-315.85
244.831	-202.85
244.964	-274.85
245.097	-186.85
245.23	8.15
245.363	149.15
245.496	-292.85
245.629	-143.85
245.762	465.15
245.895	-260.85
246.028	-229.85
246.161	427.15
246.294	40.15
246.427	-225.85
246.559	104.15
246.692	-70.85
246.825	-158.85
246.958	-227.85
247.091	-281.85
247.224	-332.85
247.357	-193.85
247.49	132.15
247.623	-174.85
247.756	-278.85
247.889	308.15
248.022	-129.85
248.155	-265.85
248.288	-116.85
248.421	-221.85
248.553	96.15
248.686	-237.85
248.819	78.15
248.952	-267.85
249.085	154.15
249.218	-55.85
249.351	-75.85
249.484	152.15
249.617	-103.85
249.749	-248.85
249.882	-224.85
250.015	-239.85
250.148	-158.85
250.281	-262.85
250.414	-164.85
250.547	-147.85
250.679	205.15
250.812	-99.85
250.945	27.15
251.078	-254.85
251.211	-132.85
251.344	-300.85
251.476	-162.85
251.609	1.15
251.742	-278.85
251.875	-47.85
252.008	-215.85
252.14	-343.85
252.273	-115.85
252.406	132.15
252.539	-31.85
252.672	-93.85
252.804	131.15
252.937	-272.85
253.07	-23.85
253.203	-133.85
253.335	74.15
253.468	-370.85
253.601	-139.85
253.734	-43.85
253.866	-135.85
253.999	375.15
254.132	-5.85
254.265	-140.85
254.397	-178.85
254.53	-131.85
254.663	23.15
254.796	-231.85
254.928	-269.85
255.061	-242.85
255.194	-68.85
255.327	-331.85
255.459	-32.85
255.592	-275.85
255.725	168.15
255.857	-230.85
255.99	-18.85
256.123	-250.85
256.255	-244.85
256.388	-75.85
256.521	-247.85
256.653	-301.85
256.786	-227.85
256.919	-188.85
257.051	-267.85
257.184	-9.85
257.317	-214.85
257.449	-277.85
257.582	-73.85
257.715	-216.85
257.847	-222.85
257.98	-123.85
258.113	-214.85
258.245	-129.85
258.378	-376.85
258.51	-265.85
258.643	-238.85
258.776	37.15
258.908	-286.85
259.041	-70.85
259.174	-203.85
259.306	-204.85
259.439	-274.85
259.571	-204.85
259.704	-97.85
259.837	133.15
259.969	-220.85
260.102	-247.85
260.234	193.15
260.367	58.15
260.499	-218.85
260.632	-158.85
260.765	-189.85
260.897	-207.85
261.03	-252.85
261.162	-65.85
261.295	-55.85
261.427	118.15
261.56	-80.85
261.692	-283.85
261.825	-57.85
261.957	94.15
262.09	109.15
262.222	27.15
262.355	-236.85
262.487	-133.85
262.62	-272.85
262.752	-93.85
262.885	-134.85
263.017	-5.85
263.15	-222.85
263.282	-82.85
263.415	-238.85
263.547	-44.85
263.68	199.15
263.812	-322.85
263.945	-130.85
264.077	-231.85
264.21	186.15
264.342	-305.85
264.475	-234.85
264.607	159.15
264.74	-378.85
264.872	-99.85
265.004	92.15
265.137	83.15
265.269	323.15
265.402	-259.85
265.534	-202.85
265.667	-173.85
265.799	62.15
265.931	-90.85
266.064	19.15
266.196	-145.85
266.329	-186.85
266.461	-153.85
266.593	19.15
266.726	-337.85
266.858	-177.85
266.99	-110.85
267.123	-187.85
267.255	-40.85
267.388	-137.85
267.52	-256.85
267.652	-196.85
267.785	98.15
267.917	10.15
268.049	-141.85
268.182	398.15
268.314	31.15
268.446	-345.85
268.579	-227.85
268.711	191.15
268.843	-207.85
268.976	-78.85
269.108	375.15
269.24	187.15
269.373	11.15
269.505	-166.85
269.637	-141.85
269.77	-212.85
269.902	133.15
270.034	-259.85
270.167	32.15
270.299	-28.85
270.431	3.15
270.563	-218.85
270.696	-15.85
270.828	-113.85
270.96	-76.85
271.092	-24.85
271.225	-230.85
271.357	-60.85
271.489	-179.85
271.621	-249.85
271.754	514.15
271.886	-232.85
272.018	-155.85
272.15	288.15
272.283	-257.85
272.415	-166.85
272.547	67.15
272.679	105.15
272.811	-97.85
272.944	-110.85
273.076	-367.85
273.208	-57.85
273.34	-92.85
273.473	-132.85
273.605	73.15
273.737	-285.85
273.869	-60.85
274.001	-396.85
274.133	-3.85
274.266	-204.85
274.398	1450.15
274.53	0.15
274.662	153.15
274.794	4.15
274.926	71.15
275.059	-183.85
275.191	-0.85
275.323	-230.85
275.455	107.15
275.587	-213.85
275.719	-170.85
275.851	-95.85
275.983	28.15
276.116	-40.85
276.248	132.15
276.38	-254.85
276.512	-10.85
276.644	-130.85
276.776	-256.85
276.908	-77.85
277.04	-112.85
277.172	37.15
277.304	-168.85
277.437	-7.85
277.569	-199.85
277.701	-263.85
277.833	-134.85
277.965	-178.85
278.097	59.15
278.229	-179.85
278.361	-181.85
278.493	116.15
278.625	193.15
278.757	16.15
278.889	-230.85
279.021	-175.85
279.153	488.15
279.285	-235.85
279.417	566.15
279.549	88.15
279.681	-126.85
279.813	-203.85
279.945	22.15
280.077	-201.85
280.209	1049.15
280.341	-288.85
280.473	-177.85
280.605	57.15
280.737	-39.85
280.869	243.15
281.001	-49.85
281.133	-333.85
281.265	-6.85
281.397	-149.85
281.529	242.15
281.661	-273.85
281.793	-356.85
281.925	-218.85
282.057	-136.85
282.189	-156.85
282.321	-28.85
282.453	-8.85
282.585	-252.85
282.717	131.15
282.849	-69.85
282.98	-171.85
283.112	-201.85
283.244	-13.85
283.376	-228.85
283.508	-360.85
283.64	-255.85
283.772	111.15
283.904	70.15
284.036	-308.85
284.168	149.15
284.299	-35.85
284.431	-39.85
284.563	-109.85
284.695	-144.85
284.827	-241.85
284.959	-34.85
285.091	-244.85
285.222	-282.85
285.354	-176.85
285.486	-110.85
285.618	-262.85
285.75	-125.85
285.882	173.15
286.013	44.15
286.145	-20.85
286.277	-14.85
286.409	73.15
286.541	41.15
286.673	-224.85
286.804	-237.85
286.936	-66.85
287.068	-203.85
287.2	-249.85
287.332	309.15
287.463	-320.85
287.595	-45.85
287.727	420.15
287.859	-82.85
287.99	-106.85
288.122	-199.85
288.254	28.15
288.386	-165.85
288.517	-294.85
288.649	-166.85
288.781	-31.85
288.913	-29.85
289.044	-303.85
289.176	154.15
289.308	-176.85
289.44	-359.85
289.571	-208.85
289.703	-279.85
289.835	64.15
289.967	-247.85
290.098	-330.85
290.23	-328.85
290.362	111.15
290.493	-343.85
290.625	-169.85
290.757	-174.85
290.888	-129.85
291.02	-37.85
291.152	-26.85
291.283	-9.85
291.415	-154.85
291.547	-245.85
291.678	-247.85
291.81	-44.85
291.942	277.15
292.073	-23.85
292.205	-286.85
292.337	71.15
292.468	490.15
292.6	-188.85
292.732	593.15
292.863	-210.85
292.995	-339.85
293.126	61.15
293.258	184.15
293.39	-270.85
293.521	-248.85
293.653	-310.85
293.785	113.15
293.916	-156.85
294.048	21.15
294.179	0.15
294.311	-245.85
294.442	44.15
294.574	-277.85
294.706	-90.85
294.837	86.15
294.969	-66.85
295.1	-179.85
295.232	-243.85
295.363	173.15
295.495	-172.85
295.627	23.15
295.758	102.15
295.89	-352.85
296.021	32.15
296.153	29.15
296.284	-96.85
296.416	-134.85
296.547	-161.85
296.679	-65.85
296.81	-45.85
296.942	-345.85
297.073	-274.85
297.205	-289.85
297.336	-203.85
297.468	-222.85
297.599	-68.85
297.731	-366.85
297.862	-98.85
297.994	-308.85
298.125	-266.85
298.257	-158.85
298.388	19.15
298.52	-2.85
298.651	-112.85
298.782	268.15
298.914	-234.85
299.045	-157.85
299.177	-300.85
299.308	-324.85
299.44	5.15
299.571	-30.85
299.702	-160.85
299.834	-86.85
299.965	-137.85
300.097	-242.85
300.228	-20.85
300.36	-77.85
300.491	-105.85
300.622	-15.85
300.754	-137.85
300.885	-210.85
301.017	-37.85
301.148	-207.85
301.279	-327.85
301.411	13.15
301.542	-47.85
301.673	-43.85
301.805	-29.85
301.936	-208.85
302.067	-122.85
302.199	-197.85
302.33	-273.85
302.461	308.15
302.593	18.15
302.724	-50.85
302.855	-301.85
302.987	-138.85
303.118	-279.85
303.249	-327.85
303.381	-130.85
303.512	-183.85
303.643	-217.85
303.775	134.15
303.906	-273.85
304.037	-226.85
304.169	-228.85
304.3	-163.85
304.431	-280.85
304.562	-200.85
304.694	-163.85
304.825	-37.85
304.956	66.15
305.087	-188.85
305.219	-8.85
305.35	-96.85
305.481	-227.85
305.612	29.15
305.744	-12.85
305.875	-167.85
306.006	487.15
306.137	-208.85
306.269	-42.85
306.4	40.15
306.531	101.15
306.662	-152.85
306.794	103.15
306.925	-180.85
307.056	-250.85
307.187	-35.85
307.318	-118.85
307.45	-155.85
307.581	-180.85
307.712	-231.85
307.843	-94.85
307.974	-99.85
308.105	96.15
308.237	-74.85
308.368	-310.85
308.499	-164.85
308.63	2.15
308.761	-113.85
308.892	-96.85
309.024	-159.85
309.155	-188.85
309.286	-200.85
309.417	-279.85
309.548	-156.85
309.679	-157.85
309.81	-397.85
309.941	411.15
310.073	-53.85
310.204	-330.85
310.335	-31.85
310.466	-195.85
310.597	-246.85
310.728	-176.85
310.859	343.15
310.99	280.15
311.121	-102.85
311.252	-130.85
311.383	-257.85
311.514	-63.85
311.646	-173.85
311.777	-26.85
311.908	-93.85
312.039	-141.85
312.17	-330.85
312.301	-136.85
312.432	-209.85
312.563	-342.85
312.694	-30.85
312.825	-170.85
312.956	-218.85
313.087	59.15
313.218	34.15
313.349	-118.85
313.48	-354.85
313.611	-138.85
313.742	-97.85
313.873	31.15
314.004	-66.85
314.135	-163.85
314.266	-70.85
314.397	-181.85
314.528	-264.85
314.659	-270.85
314.79	-217.85
314.921	47.15
315.052	13.15
315.183	-265.85
315.314	-341.85
315.445	65.15
315.576	-53.85
315.707	-146.85
315.838	-162.85
315.968	-23.85
316.099	-292.85
316.23	-319.85
316.361	91.15
316.492	-152.85
316.623	57.15
316.754	157.15
316.885	-393.85
317.016	-308.85
317.147	-355.85
317.278	73.15
317.408	-242.85
317.539	-302.85
317.67	-287.85
317.801	-21.85
317.932	-177.85
318.063	-215.85
318.194	-155.85
318.325	-2.85
318.455	-369.85
318.586	-167.85
318.717	-39.85
318.848	-352.85
318.979	74.15
319.11	245.15
319.24	13.15
319.371	56.15
319.502	-118.85
319.633	-248.85
319.764	-122.85
319.895	-250.85
320.025	-76.85
320.156	-298.85
320.287	-410.85
320.418	-217.85
320.549	-82.85
320.679	-317.85
320.81	118.15
320.941	-314.85
321.072	-284.85
321.202	-41.85
321.333	253.15
321.464	-390.85
321.595	-259.85
321.726	227.15
321.856	-347.85
321.987	-142.85
322.118	-231.85
322.249	12.15
322.379	-77.85
322.51	12.15
322.641	-92.85
322.771	-296.85
322.902	-75.85
323.033	-99.85
323.164	698.15
323.294	-175.85
323.425	-220.85
323.556	-198.85
323.686	-103.85
323.817	281.15
323.948	-30.85
324.078	-173.85
324.209	130.15
324.34	-188.85
324.47	176.15
324.601	-232.85
324.732	-65.85
324.862	19.15
324.993	-239.85
325.124	-417.85
325.254	-81.85
325.385	-69.85
325.516	497.15
325.646	384.15
325.777	-194.85
325.908	-145.85
326.038	56.15
326.169	-129.85
326.299	-58.85
326.43	137.15
326.561	-131.85
326.691	-155.85
326.822	-273.85
326.952	-181.85
327.083	-67.85
327.214	-249.85
327.344	-85.85
327.475	-32.85
327.605	-36.85
327.736	-180.85
327.867	-283.85
327.997	-140.85
328.128	-86.85
328.258	-330.85
328.389	264.15
328.519	-261.85
328.65	46.15
328.78	-220.85
328.911	-20.85
329.041	83.15
329.172	-347.85
329.303	-224.85
329.433	-156.85
329.564	-270.85
329.694	-259.85
329.825	-216.85
329.955	-70.85
330.086	423.15
330.216	-144.85
330.347	-274.85
330.477	-123.85
330.608	-138.85
330.738	-121.85
330.868	-291.85
330.999	-173.85
331.129	121.15
331.26	-238.85
331.39	-219.85
331.521	126.15
331.651	25.15
331.782	-324.85
331.912	-271.85
332.043	-252.85
332.173	41.15
332.303	-327.85
332.434	93.15
332.564	-18.85
332.695	-233.85
332.825	-339.85
332.956	-190.85
333.086	-84.85
333.216	-246.85
333.347	-60.85
333.477	-417.85
333.608	-106.85
333.738	-3.85
333.868	-121.85
333.999	-59.85
334.129	67.15
334.259	-48.85
334.39	-224.85
334.52	52.15
334.65	-180.85
334.781	130.15
334.911	-204.85
335.042	-263.85
335.172	-31.85
335.302	-119.85
335.433	243.15
335.563	-272.85
335.693	18.15
335.824	275.15
335.954	-368.85
336.084	-9.85
336.214	-24.85
336.345	296.15
336.475	47.15
336.605	-242.85
336.736	323.15
336.866	-121.85
336.996	-153.85
337.126	-277.85
337.257	-92.85
337.387	-363.85
337.517	-226.85
337.648	-359.85
337.778	154.15
337.908	44.15
338.038	24.15
338.169	-206.85
338.299	248.15
338.429	-19.85
338.559	-246.85
338.69	-185.85
338.82	360.15
338.95	-25.85
339.08	-459.85
339.21	-307.85
339.341	-102.85
339.471	52.15
339.601	-98.85
339.731	-71.85
339.861	-160.85
339.992	-129.85
340.122	-139.85
340.252	-221.85
340.382	-196.85
340.512	-85.85
340.642	153.15
340.773	-78.85
340.903	-297.85
341.033	-108.85
341.163	-29.85
341.293	106.15
341.423	-238.85
341.554	-317.85
341.684	-51.85
341.814	-133.85
341.944	-157.85
342.074	-115.85
342.204	-177.85
342.334	151.15
342.464	-264.85
342.595	-157.85
342.725	-298.85
342.855	-32.85
342.985	-159.85
343.115	-250.85
343.245	-378.85
343.375	-21.85
343.505	-113.85
343.635	5.15
343.765	-221.85
343.895	-404.85
344.025	20.15
344.155	-310.85
344.286	-193.85
344.416	-53.85
344.546	89.15
344.676	-126.85
344.806	172.15
344.936	-71.85
345.066	174.15
345.196	-283.85
345.326	-290.85
345.456	110.15
345.586	-262.85
345.716	-303.85
345.846	33.15
345.976	-378.85
346.106	-92.85
346.236	60.15
346.366	44.15
346.496	-193.85
346.626	-169.85
346.756	-215.85
346.886	-238.85
347.016	-342.85
347.146	-216.85
347.276	-255.85
347.406	-199.85
347.536	-48.85
347.666	110.15
347.795	-259.85
347.925	-181.85
348.055	96.15
348.185	-169.85
348.315	-201.85
348.445	101.15
348.575	-177.85
348.705	-260.85
348.835	-247.85
348.965	-161.85
349.095	-7.85
349.225	238.15
349.354	-243.85
349.484	-186.85
349.614	-194.85
349.744	-242.85
349.874	-258.85
350.004	-341.85
350.134	-295.85
350.264	-343.85
350.393	-303.85
350.523	103.15
350.653	-328.85
350.783	23.15
350.913	171.15
351.043	-194.85
351.173	-172.85
351.302	-18.85
351.432	187.15
351.562	-95.85
351.692	-77.85
351.822	-166.85
351.951	-380.85
352.081	187.15
352.211	-116.85
352.341	163.15
352.471	137.15
352.6	-163.85
352.73	-216.85
352.86	-148.85
352.99	-14.85
353.12	-68.85
353.249	-21.85
353.379	-230.85
353.509	68.15
353.639	-310.85
353.768	-107.85
353.898	-224.85
354.028	-276.85
354.158	-186.85
354.287	-201.85
354.417	-293.85
354.547	-276.85
354.677	-385.85
354.806	-130.85
354.936	-17.85
355.066	-184.85
355.195	-38.85
355.325	-36.85
355.455	-262.85
355.584	158.15
355.714	-272.85
355.844	121.15
355.974	-11.85
356.103	-122.85
356.233	-142.85
356.363	28.15
356.492	-253.85
356.622	-285.85
356.752	-12.85
356.881	-360.85
357.011	33.15
357.14	130.15
357.27	-144.85
357.4	55.15
357.529	-169.85
357.659	135.15
357.789	-15.85
357.918	-311.85
358.048	-337.85
358.177	-118.85
358.307	-260.85
358.437	-110.85
358.566	-233.85
358.696	37.15
358.825	120.15
358.955	-306.85
359.085	29.15
359.214	-414.85
359.344	-109.85
359.473	-272.85
359.603	-147.85
359.733	-226.85
359.862	-334.85
359.992	93.15
360.121	-180.85
360.251	27.15
360.38	-329.85
360.51	87.15
360.639	-170.85
360.769	-98.85
360.898	97.15
361.028	23.15
361.157	-94.85
361.287	-57.85
361.416	-276.85
361.546	-156.85
361.675	-136.85
361.805	-173.85
361.934	12.15
362.064	-200.85
362.193	-222.85
362.323	-282.85
362.452	110.15
362.582	-233.85
362.711	-133.85
362.841	5.15
362.97	-4.85
363.1	-264.85
363.229	-311.85
363.359	-140.85
363.488	-231.85
363.617	-113.85
363.747	-79.85
363.876	-380.85
364.006	-60.85
364.135	-110.85
364.265	-138.85
364.394	-185.85
364.523	292.15
364.653	-265.85
364.782	-25.85
364.912	-253.85
365.041	-278.85
365.17	-283.85
365.3	17.15
365.429	156.15
365.558	-174.85
365.688	-241.85
365.817	-293.85
365.947	-66.85
366.076	-52.85
366.205	-90.85
366.335	-374.85
