Data from HR4D30811__10__00010.txt Node

Date: Fri Jan 26 16:32:46 MST 2024
User: Brock
Spectrometer: HR4D3081
Trigger mode: 4
Integration Time (sec): 8.000000E0
Scans to average: 1
Electric dark correction enabled: true
Nonlinearity correction enabled: false
Boxcar width: 0
XAxis mode: Wavelengths
Number of Pixels in Spectrum: 3648
>>>>>Begin Spectral Data<<<<<
197.25	-1185.08
197.385	-1185.08
197.519	-1185.08
197.653	-1207.08
197.787	187.92
197.922	-124.08
198.056	77.92
198.19	-6.08
198.324	-7.08
198.459	-177.08
198.593	417.92
198.727	-33.08
198.861	-88.08
198.996	219.92
199.13	-283.08
199.264	-210.08
199.398	-67.08
199.533	279.92
199.667	126.92
199.801	-88.08
199.935	-268.08
200.07	-36.08
200.204	2.92
200.338	-197.08
200.472	-168.08
200.606	-332.08
200.741	-148.08
200.875	-148.08
201.009	-127.08
201.143	-224.08
201.277	86.92
201.412	114.92
201.546	205.92
201.68	173.92
201.814	-183.08
201.948	72.92
202.082	-66.08
202.217	-311.08
202.351	-117.08
202.485	-46.08
202.619	-289.08
202.753	-337.08
202.887	265.92
203.021	124.92
203.156	236.92
203.29	25.92
203.424	-18.08
203.558	-191.08
203.692	-65.08
203.826	-283.08
203.96	-113.08
204.094	173.92
204.229	-164.08
204.363	-201.08
204.497	-335.08
204.631	-263.08
204.765	-210.08
204.899	-139.08
205.033	-112.08
205.167	-222.08
205.301	13.92
205.435	-327.08
205.569	-74.08
205.704	-81.08
205.838	-296.08
205.972	-141.08
206.106	516.92
206.24	-162.08
206.374	-220.08
206.508	54.92
206.642	36.92
206.776	-131.08
206.91	154.92
207.044	2.92
207.178	122.92
207.312	-35.08
207.446	-138.08
207.58	-179.08
207.714	-294.08
207.848	135.92
207.982	-367.08
208.116	21.92
208.25	-220.08
208.384	-154.08
208.518	-186.08
208.652	-211.08
208.786	-259.08
208.92	222.92
209.054	-45.08
209.188	-285.08
209.322	-140.08
209.456	-118.08
209.59	-260.08
209.724	-92.08
209.858	-22.08
209.992	-115.08
210.126	-170.08
210.26	-153.08
210.394	-59.08
210.528	-25.08
210.662	-211.08
210.796	-159.08
210.929	123.92
211.063	-4.08
211.197	-82.08
211.331	-18.08
211.465	-199.08
211.599	50.92
211.733	117.92
211.867	-175.08
212.001	-180.08
212.135	-57.08
212.269	-229.08
212.402	-200.08
212.536	84.92
212.67	-108.08
212.804	-262.08
212.938	36.92
213.072	-215.08
213.206	-83.08
213.34	-161.08
213.473	-132.08
213.607	77.92
213.741	-265.08
213.875	-304.08
214.009	-227.08
214.143	-166.08
214.277	-127.08
214.41	-242.08
214.544	221.92
214.678	131.92
214.812	220.92
214.946	-246.08
215.08	-186.08
215.213	-207.08
215.347	-112.08
215.481	-110.08
215.615	-330.08
215.749	45.92
215.882	-221.08
216.016	-281.08
216.15	98.92
216.284	161.92
216.418	-21.08
216.551	90.92
216.685	32.92
216.819	-273.08
216.953	-140.08
217.086	267.92
217.22	-163.08
217.354	-24.08
217.488	62.92
217.621	107.92
217.755	-23.08
217.889	-129.08
218.023	-89.08
218.156	88.92
218.29	105.92
218.424	202.92
218.558	-233.08
218.691	-369.08
218.825	-114.08
218.959	438.92
219.092	-117.08
219.226	-349.08
219.36	-283.08
219.494	-22.08
219.627	-192.08
219.761	-203.08
219.895	-120.08
220.028	-321.08
220.162	550.92
220.296	146.92
220.429	-12.08
220.563	-78.08
220.697	-14.08
220.83	-205.08
220.964	-161.08
221.098	-238.08
221.231	-279.08
221.365	51.92
221.499	-206.08
221.632	-233.08
221.766	32.92
221.9	-113.08
222.033	70.92
222.167	85.92
222.3	-184.08
222.434	-18.08
222.568	243.92
222.701	-189.08
222.835	-128.08
222.968	-209.08
223.102	-223.08
223.236	-234.08
223.369	-10.08
223.503	6.92
223.636	-249.08
223.77	-173.08
223.904	-11.08
224.037	-164.08
224.171	87.92
224.304	32.92
224.438	-164.08
224.571	-105.08
224.705	159.92
224.839	-51.08
224.972	-306.08
225.106	-38.08
225.239	-107.08
225.373	77.92
225.506	-52.08
225.64	36.92
225.773	-145.08
225.907	-199.08
226.04	-301.08
226.174	-124.08
226.307	-40.08
226.441	-167.08
226.575	6.92
226.708	151.92
226.842	-88.08
226.975	-152.08
227.109	-210.08
227.242	13.92
227.375	39.92
227.509	-41.08
227.642	-180.08
227.776	36.92
227.909	73.92
228.043	-232.08
228.176	216.92
228.31	-242.08
228.443	340.92
228.577	-85.08
228.71	-127.08
228.844	7.92
228.977	-265.08
229.111	-178.08
229.244	60.92
229.377	-313.08
229.511	-52.08
229.644	-176.08
229.778	-161.08
229.911	-176.08
230.044	-115.08
230.178	-25.08
230.311	-200.08
230.445	32.92
230.578	-192.08
230.711	-110.08
230.845	327.92
230.978	35.92
231.112	-222.08
231.245	-280.08
231.378	-249.08
231.512	48.92
231.645	-390.08
231.779	-317.08
231.912	-39.08
232.045	59.92
232.179	-158.08
232.312	-127.08
232.445	67.92
232.579	240.92
232.712	164.92
232.845	-209.08
232.979	-363.08
233.112	27.92
233.245	-98.08
233.379	-266.08
233.512	-33.08
233.645	-249.08
233.779	-242.08
233.912	3.92
234.045	-152.08
234.179	27.92
234.312	-131.08
234.445	25.92
234.578	-28.08
234.712	8.92
234.845	50.92
234.978	-187.08
235.112	-44.08
235.245	111.92
235.378	-189.08
235.511	-31.08
235.645	31.92
235.778	-5.08
235.911	-153.08
236.044	-293.08
236.178	288.92
236.311	-249.08
236.444	-262.08
236.577	-236.08
236.711	-55.08
236.844	-380.08
236.977	-149.08
237.11	-228.08
237.243	15.92
237.377	-299.08
237.51	-244.08
237.643	924.92
237.776	-164.08
237.909	-145.08
238.043	-15.08
238.176	-248.08
238.309	-63.08
238.442	-308.08
238.575	-81.08
238.709	408.92
238.842	5.92
238.975	-19.08
239.108	201.92
239.241	-283.08
239.374	-216.08
239.508	-180.08
239.641	192.92
239.774	358.92
239.907	-44.08
240.04	-271.08
240.173	29.92
240.306	223.92
240.44	-165.08
240.573	161.92
240.706	-151.08
240.839	19.92
240.972	-72.08
241.105	-74.08
241.238	25.92
241.371	-45.08
241.504	-90.08
241.638	-134.08
241.771	-27.08
241.904	-141.08
242.037	32.92
242.17	-192.08
242.303	-290.08
242.436	-71.08
242.569	-114.08
242.702	-199.08
242.835	-144.08
242.968	-20.08
243.101	-130.08
243.234	-213.08
243.367	-262.08
243.5	-142.08
243.634	-180.08
243.767	-277.08
243.9	-216.08
244.033	-237.08
244.166	77.92
244.299	-332.08
244.432	-244.08
244.565	-9.08
244.698	-328.08
244.831	-192.08
244.964	-256.08
245.097	-201.08
245.23	-27.08
245.363	161.92
245.496	-293.08
245.629	-136.08
245.762	459.92
245.895	-250.08
246.028	-213.08
246.161	453.92
246.294	40.92
246.427	-217.08
246.559	89.92
246.692	-46.08
246.825	-178.08
246.958	-246.08
247.091	-275.08
247.224	-330.08
247.357	-206.08
247.49	148.92
247.623	-183.08
247.756	-270.08
247.889	298.92
248.022	-112.08
248.155	-285.08
248.288	-111.08
248.421	-233.08
248.553	70.92
248.686	-224.08
248.819	77.92
248.952	-257.08
249.085	187.92
249.218	-39.08
249.351	-78.08
249.484	157.92
249.617	-79.08
249.749	-252.08
249.882	-211.08
250.015	-249.08
250.148	-158.08
250.281	-248.08
250.414	-180.08
250.547	-155.08
250.679	160.92
250.812	-105.08
250.945	-12.08
251.078	-231.08
251.211	-174.08
251.344	-298.08
251.476	-180.08
251.609	0.92
251.742	-257.08
251.875	-43.08
252.008	-235.08
252.14	-351.08
252.273	-97.08
252.406	187.92
252.539	-30.08
252.672	-90.08
252.804	125.92
252.937	-251.08
253.07	-49.08
253.203	-109.08
253.335	103.92
253.468	-354.08
253.601	-156.08
253.734	-80.08
253.866	-140.08
253.999	378.92
254.132	-5.08
254.265	-179.08
254.397	-155.08
254.53	-154.08
254.663	6.92
254.796	-198.08
254.928	-259.08
255.061	-235.08
255.194	-42.08
255.327	-293.08
255.459	-45.08
255.592	-275.08
255.725	180.92
255.857	-204.08
255.99	-21.08
256.123	-233.08
256.255	-268.08
256.388	-65.08
256.521	-243.08
256.653	-297.08
256.786	-226.08
256.919	-168.08
257.051	-264.08
257.184	-65.08
257.317	-212.08
257.449	-232.08
257.582	-74.08
257.715	-211.08
257.847	-255.08
257.98	-109.08
258.113	-187.08
258.245	-132.08
258.378	-361.08
258.51	-274.08
258.643	-264.08
258.776	47.92
258.908	-299.08
259.041	-68.08
259.174	-202.08
259.306	-192.08
259.439	-287.08
259.571	-198.08
259.704	-78.08
259.837	136.92
259.969	-211.08
260.102	-212.08
260.234	226.92
260.367	85.92
260.499	-259.08
260.632	-148.08
260.765	-219.08
260.897	-201.08
261.03	-235.08
261.162	-108.08
261.295	-57.08
261.427	98.92
261.56	-74.08
261.692	-253.08
261.825	-87.08
261.957	95.92
262.09	78.92
262.222	-7.08
262.355	-255.08
262.487	-124.08
262.62	-272.08
262.752	-91.08
262.885	-177.08
263.017	31.92
263.15	-181.08
263.282	-55.08
263.415	-274.08
263.547	-64.08
263.68	214.92
263.812	-321.08
263.945	-111.08
264.077	-268.08
264.21	150.92
264.342	-268.08
264.475	-233.08
264.607	199.92
264.74	-389.08
264.872	-111.08
265.004	116.92
265.137	54.92
265.269	343.92
265.402	-245.08
265.534	-168.08
265.667	-169.08
265.799	51.92
265.931	-90.08
266.064	6.92
266.196	-128.08
266.329	-205.08
266.461	-184.08
266.593	41.92
266.726	-317.08
266.858	-139.08
266.99	-127.08
267.123	-172.08
267.255	-73.08
267.388	-152.08
267.52	-289.08
267.652	-219.08
267.785	124.92
267.917	-37.08
268.049	-147.08
268.182	390.92
268.314	58.92
268.446	-332.08
268.579	-233.08
268.711	209.92
268.843	-228.08
268.976	-75.08
269.108	360.92
269.24	150.92
269.373	-19.08
269.505	-133.08
269.637	-150.08
269.77	-215.08
269.902	139.92
270.034	-283.08
270.167	39.92
270.299	12.92
270.431	-0.08
270.563	-207.08
270.696	9.92
270.828	-89.08
270.96	-90.08
271.092	8.92
271.225	-239.08
271.357	-71.08
271.489	-180.08
271.621	-250.08
271.754	544.92
271.886	-220.08
272.018	-201.08
272.15	280.92
272.283	-280.08
272.415	-152.08
272.547	80.92
272.679	76.92
272.811	-115.08
272.944	-113.08
273.076	-341.08
273.208	-43.08
273.34	-98.08
273.473	-158.08
273.605	92.92
273.737	-284.08
273.869	-46.08
274.001	-396.08
274.133	30.92
274.266	-205.08
274.398	1449.92
274.53	40.92
274.662	123.92
274.794	9.92
274.926	67.92
275.059	-199.08
275.191	8.92
275.323	-240.08
275.455	84.92
275.587	-211.08
275.719	-168.08
275.851	-120.08
275.983	29.92
276.116	-24.08
276.248	119.92
276.38	-274.08
276.512	-16.08
276.644	-170.08
276.776	-231.08
276.908	-55.08
277.04	-127.08
277.172	15.92
277.304	-174.08
277.437	-17.08
277.569	-206.08
277.701	-262.08
277.833	-98.08
277.965	-202.08
278.097	37.92
278.229	-155.08
278.361	-159.08
278.493	129.92
278.625	201.92
278.757	19.92
278.889	-261.08
279.021	-178.08
279.153	506.92
279.285	-243.08
279.417	546.92
279.549	70.92
279.681	-114.08
279.813	-182.08
279.945	49.92
280.077	-222.08
280.209	1107.92
280.341	-273.08
280.473	-124.08
280.605	78.92
280.737	-6.08
280.869	199.92
281.001	-75.08
281.133	-347.08
281.265	-36.08
281.397	-150.08
281.529	302.92
281.661	-280.08
281.793	-351.08
281.925	-240.08
282.057	-127.08
282.189	-139.08
282.321	-24.08
282.453	-4.08
282.585	-237.08
282.717	150.92
282.849	-90.08
282.98	-166.08
283.112	-223.08
283.244	-16.08
283.376	-257.08
283.508	-368.08
283.64	-239.08
283.772	88.92
283.904	97.92
284.036	-278.08
284.168	130.92
284.299	-44.08
284.431	-17.08
284.563	-139.08
284.695	-141.08
284.827	-234.08
284.959	-15.08
285.091	-252.08
285.222	-270.08
285.354	-184.08
285.486	-116.08
285.618	-247.08
285.75	-123.08
285.882	147.92
286.013	55.92
286.145	-62.08
286.277	0.92
286.409	67.92
286.541	83.92
286.673	-225.08
286.804	-209.08
286.936	-41.08
287.068	-250.08
287.2	-237.08
287.332	311.92
287.463	-298.08
287.595	-55.08
287.727	413.92
287.859	-136.08
287.99	-118.08
288.122	-210.08
288.254	23.92
288.386	-152.08
288.517	-283.08
288.649	-181.08
288.781	-16.08
288.913	5.92
289.044	-306.08
289.176	171.92
289.308	-166.08
289.44	-336.08
289.571	-236.08
289.703	-253.08
289.835	64.92
289.967	-252.08
290.098	-327.08
290.23	-318.08
290.362	98.92
290.493	-327.08
290.625	-195.08
290.757	-169.08
290.888	-138.08
291.02	-40.08
291.152	-23.08
291.283	-1.08
291.415	-106.08
291.547	-259.08
291.678	-205.08
291.81	-53.08
291.942	268.92
292.073	-17.08
292.205	-294.08
292.337	77.92
292.468	475.92
292.6	-180.08
292.732	590.92
292.863	-224.08
292.995	-333.08
293.126	47.92
293.258	152.92
293.39	-268.08
293.521	-245.08
293.653	-300.08
293.785	71.92
293.916	-133.08
294.048	15.92
294.179	12.92
294.311	-239.08
294.442	50.92
294.574	-271.08
294.706	-107.08
294.837	91.92
294.969	-59.08
295.1	-181.08
295.232	-247.08
295.363	195.92
295.495	-200.08
295.627	-10.08
295.758	138.92
295.89	-319.08
296.021	32.92
296.153	48.92
296.284	-86.08
296.416	-118.08
296.547	-167.08
296.679	-61.08
296.81	-60.08
296.942	-351.08
297.073	-275.08
297.205	-279.08
297.336	-153.08
297.468	-226.08
297.599	-105.08
297.731	-335.08
297.862	-120.08
297.994	-307.08
298.125	-263.08
298.257	-114.08
298.388	42.92
298.52	28.92
298.651	-89.08
298.782	239.92
298.914	-219.08
299.045	-158.08
299.177	-277.08
299.308	-292.08
299.44	46.92
299.571	-54.08
299.702	-173.08
299.834	-116.08
299.965	-139.08
300.097	-215.08
300.228	-35.08
300.36	-80.08
300.491	-100.08
300.622	-7.08
300.754	-129.08
300.885	-234.08
301.017	-79.08
301.148	-178.08
301.279	-324.08
301.411	17.92
301.542	-5.08
301.673	-29.08
301.805	13.92
301.936	-219.08
302.067	-161.08
302.199	-175.08
302.33	-262.08
302.461	311.92
302.593	14.92
302.724	-6.08
302.855	-316.08
302.987	-117.08
303.118	-279.08
303.249	-367.08
303.381	-135.08
303.512	-245.08
303.643	-229.08
303.775	125.92
303.906	-276.08
304.037	-246.08
304.169	-196.08
304.3	-156.08
304.431	-291.08
304.562	-201.08
304.694	-163.08
304.825	-56.08
304.956	112.92
305.087	-187.08
305.219	17.92
305.35	-75.08
305.481	-227.08
305.612	30.92
305.744	-16.08
305.875	-161.08
306.006	523.92
306.137	-202.08
306.269	-55.08
306.4	65.92
306.531	102.92
306.662	-154.08
306.794	135.92
306.925	-231.08
307.056	-253.08
307.187	-52.08
307.318	-128.08
307.45	-164.08
307.581	-223.08
307.712	-250.08
307.843	-122.08
307.974	-89.08
308.105	97.92
308.237	-57.08
308.368	-294.08
308.499	-174.08
308.63	2.92
308.761	-109.08
308.892	-108.08
309.024	-137.08
309.155	-187.08
309.286	-180.08
309.417	-263.08
309.548	-170.08
309.679	-157.08
309.81	-412.08
309.941	442.92
310.073	-52.08
310.204	-334.08
310.335	-16.08
310.466	-178.08
310.597	-245.08
310.728	-184.08
310.859	350.92
310.99	311.92
311.121	-112.08
311.252	-102.08
311.383	-248.08
311.514	-28.08
311.646	-175.08
311.777	-50.08
311.908	-43.08
312.039	-141.08
312.17	-342.08
312.301	-143.08
312.432	-217.08
312.563	-328.08
312.694	-75.08
312.825	-161.08
312.956	-235.08
313.087	41.92
313.218	76.92
313.349	-129.08
313.48	-316.08
313.611	-148.08
313.742	-81.08
313.873	35.92
314.004	-46.08
314.135	-176.08
314.266	-59.08
314.397	-170.08
314.528	-266.08
314.659	-273.08
314.79	-206.08
314.921	26.92
315.052	12.92
315.183	-267.08
315.314	-298.08
315.445	54.92
315.576	-55.08
315.707	-127.08
315.838	-172.08
315.968	-14.08
316.099	-288.08
316.23	-316.08
316.361	110.92
316.492	-123.08
316.623	56.92
316.754	147.92
316.885	-368.08
317.016	-304.08
317.147	-347.08
317.278	63.92
317.408	-254.08
317.539	-301.08
317.67	-283.08
317.801	-31.08
317.932	-166.08
318.063	-208.08
318.194	-169.08
318.325	-21.08
318.455	-360.08
318.586	-135.08
318.717	-42.08
318.848	-334.08
318.979	66.92
319.11	249.92
319.24	38.92
319.371	59.92
319.502	-97.08
319.633	-243.08
319.764	-135.08
319.895	-239.08
320.025	-81.08
320.156	-330.08
320.287	-416.08
320.418	-222.08
320.549	-81.08
320.679	-331.08
320.81	150.92
320.941	-351.08
321.072	-288.08
321.202	1.92
321.333	251.92
321.464	-388.08
321.595	-225.08
321.726	213.92
321.856	-347.08
321.987	-162.08
322.118	-219.08
322.249	-4.08
322.379	-74.08
322.51	13.92
322.641	-58.08
322.771	-324.08
322.902	-82.08
323.033	-117.08
323.164	700.92
323.294	-193.08
323.425	-206.08
323.556	-203.08
323.686	-84.08
323.817	297.92
323.948	-45.08
324.078	-141.08
324.209	135.92
324.34	-171.08
324.47	194.92
324.601	-220.08
324.732	-76.08
324.862	30.92
324.993	-221.08
325.124	-414.08
325.254	-96.08
325.385	-99.08
325.516	522.92
325.646	355.92
325.777	-151.08
325.908	-180.08
326.038	51.92
326.169	-156.08
326.299	-51.08
326.43	80.92
326.561	-133.08
326.691	-165.08
326.822	-283.08
326.952	-210.08
327.083	-71.08
327.214	-258.08
327.344	-73.08
327.475	-20.08
327.605	-65.08
327.736	-150.08
327.867	-286.08
327.997	-157.08
328.128	-66.08
328.258	-338.08
328.389	222.92
328.519	-292.08
328.65	26.92
328.78	-210.08
328.911	-37.08
329.041	81.92
329.172	-351.08
329.303	-216.08
329.433	-176.08
329.564	-260.08
329.694	-238.08
329.825	-207.08
329.955	-51.08
330.086	410.92
330.216	-164.08
330.347	-280.08
330.477	-123.08
330.608	-118.08
330.738	-129.08
330.868	-305.08
330.999	-170.08
331.129	104.92
331.26	-238.08
331.39	-197.08
331.521	145.92
331.651	35.92
331.782	-338.08
331.912	-271.08
332.043	-239.08
332.173	41.92
332.303	-322.08
332.434	90.92
332.564	-18.08
332.695	-211.08
332.825	-325.08
332.956	-187.08
333.086	-122.08
333.216	-257.08
333.347	-66.08
333.477	-406.08
333.608	-84.08
333.738	14.92
333.868	-144.08
333.999	-81.08
334.129	78.92
334.259	-54.08
334.39	-215.08
334.52	53.92
334.65	-175.08
334.781	114.92
334.911	-205.08
335.042	-250.08
335.172	-46.08
335.302	-114.08
335.433	281.92
335.563	-255.08
335.693	1.92
335.824	240.92
335.954	-369.08
336.084	-22.08
336.214	-36.08
336.345	311.92
336.475	39.92
336.605	-256.08
336.736	273.92
336.866	-97.08
336.996	-151.08
337.126	-266.08
337.257	-87.08
337.387	-342.08
337.517	-231.08
337.648	-326.08
337.778	146.92
337.908	93.92
338.038	20.92
338.169	-144.08
338.299	205.92
338.429	-50.08
338.559	-249.08
338.69	-179.08
338.82	379.92
338.95	-28.08
339.08	-444.08
339.21	-281.08
339.341	-124.08
339.471	22.92
339.601	-110.08
339.731	-78.08
339.861	-175.08
339.992	-131.08
340.122	-132.08
340.252	-201.08
340.382	-199.08
340.512	-90.08
340.642	169.92
340.773	-70.08
340.903	-304.08
341.033	-88.08
341.163	-36.08
341.293	112.92
341.423	-189.08
341.554	-305.08
341.684	-31.08
341.814	-115.08
341.944	-161.08
342.074	-84.08
342.204	-186.08
342.334	187.92
342.464	-280.08
342.595	-147.08
342.725	-276.08
342.855	-43.08
342.985	-185.08
343.115	-275.08
343.245	-365.08
343.375	3.92
343.505	-121.08
343.635	14.92
343.765	-209.08
343.895	-395.08
344.025	73.92
344.155	-291.08
344.286	-182.08
344.416	-60.08
344.546	110.92
344.676	-90.08
344.806	142.92
344.936	-77.08
345.066	175.92
345.196	-266.08
345.326	-312.08
345.456	80.92
345.586	-251.08
345.716	-277.08
345.846	38.92
345.976	-381.08
346.106	-82.08
346.236	55.92
346.366	24.92
346.496	-192.08
346.626	-187.08
346.756	-228.08
346.886	-205.08
347.016	-335.08
347.146	-212.08
347.276	-268.08
347.406	-204.08
347.536	-56.08
347.666	113.92
347.795	-248.08
347.925	-151.08
348.055	119.92
348.185	-157.08
348.315	-179.08
348.445	69.92
348.575	-201.08
348.705	-286.08
348.835	-265.08
348.965	-176.08
349.095	5.92
349.225	251.92
349.354	-259.08
349.484	-182.08
349.614	-165.08
349.744	-255.08
349.874	-261.08
350.004	-346.08
350.134	-274.08
350.264	-321.08
350.393	-295.08
350.523	129.92
350.653	-334.08
350.783	40.92
350.913	196.92
351.043	-234.08
351.173	-196.08
351.302	1.92
351.432	182.92
351.562	-116.08
351.692	-87.08
351.822	-184.08
351.951	-370.08
352.081	147.92
352.211	-138.08
352.341	137.92
352.471	119.92
352.6	-147.08
352.73	-202.08
352.86	-174.08
352.99	-33.08
353.12	-80.08
353.249	-49.08
353.379	-251.08
353.509	48.92
353.639	-295.08
353.768	-79.08
353.898	-229.08
354.028	-282.08
354.158	-162.08
354.287	-211.08
354.417	-324.08
354.547	-258.08
354.677	-357.08
354.806	-106.08
354.936	-5.08
355.066	-201.08
355.195	-39.08
355.325	-20.08
355.455	-254.08
355.584	167.92
355.714	-238.08
355.844	115.92
355.974	-35.08
356.103	-133.08
356.233	-145.08
356.363	32.92
356.492	-259.08
356.622	-307.08
356.752	-14.08
356.881	-341.08
357.011	50.92
357.14	116.92
357.27	-139.08
357.4	58.92
357.529	-127.08
357.659	102.92
357.789	13.92
357.918	-296.08
358.048	-338.08
358.177	-137.08
358.307	-256.08
358.437	-74.08
358.566	-265.08
358.696	60.92
358.825	131.92
358.955	-305.08
359.085	-9.08
359.214	-399.08
359.344	-90.08
359.473	-294.08
359.603	-164.08
359.733	-206.08
359.862	-319.08
359.992	65.92
360.121	-163.08
360.251	0.92
360.38	-318.08
360.51	93.92
360.639	-188.08
360.769	-78.08
360.898	107.92
361.028	62.92
361.157	-92.08
361.287	-59.08
361.416	-248.08
361.546	-164.08
361.675	-160.08
361.805	-164.08
361.934	5.92
362.064	-169.08
362.193	-213.08
362.323	-267.08
362.452	96.92
362.582	-270.08
362.711	-144.08
362.841	41.92
362.97	-23.08
363.1	-276.08
363.229	-292.08
363.359	-160.08
363.488	-234.08
363.617	-103.08
363.747	-101.08
363.876	-362.08
364.006	-14.08
364.135	-124.08
364.265	-132.08
364.394	-182.08
364.523	257.92
364.653	-252.08
364.782	-25.08
364.912	-268.08
365.041	-291.08
365.17	-251.08
365.3	1.92
365.429	173.92
365.558	-176.08
365.688	-237.08
365.817	-273.08
365.947	-74.08
366.076	-48.08
366.205	-87.08
366.335	-358.08
366.464	-222.08
