Data from HR4D30811__1__16-26-38-611.txt Node

Date: Fri Jan 26 16:26:38 MST 2024
User: Brock
Spectrometer: HR4D3081
Trigger mode: 4
Integration Time (sec): 8.000000E0
Scans to average: 1
Electric dark correction enabled: true
Nonlinearity correction enabled: false
Boxcar width: 0
XAxis mode: Wavelengths
Number of Pixels in Spectrum: 3648
>>>>>Begin Spectral Data<<<<<
197.25	-1197.62
197.385	-1197.62
197.519	-1197.62
197.653	-1214.62
197.787	217.38
197.922	-149.62
198.056	48.38
198.19	50.38
198.324	23.38
198.459	-200.62
198.593	406.38
198.727	-24.62
198.861	-106.62
198.996	212.38
199.13	-252.62
199.264	-201.62
199.398	-50.62
199.533	245.38
199.667	121.38
199.801	-46.62
199.935	-251.62
200.07	-23.62
200.204	-15.62
200.338	-152.62
200.472	-187.62
200.606	-327.62
200.741	-146.62
200.875	-122.62
201.009	-106.62
201.143	-186.62
201.277	59.38
201.412	82.38
201.546	218.38
201.68	204.38
201.814	-173.62
201.948	86.38
202.082	-73.62
202.217	-308.62
202.351	-140.62
202.485	-23.62
202.619	-264.62
202.753	-335.62
202.887	288.38
203.021	103.38
203.156	226.38
203.29	36.38
203.424	-17.62
203.558	-191.62
203.692	-73.62
203.826	-285.62
203.96	-72.62
204.094	209.38
204.229	-175.62
204.363	-204.62
204.497	-322.62
204.631	-273.62
204.765	-205.62
204.899	-111.62
205.033	-138.62
205.167	-234.62
205.301	-8.62
205.435	-298.62
205.569	-76.62
205.704	-57.62
205.838	-276.62
205.972	-131.62
206.106	529.38
206.24	-176.62
206.374	-210.62
206.508	0.38
206.642	59.38
206.776	-70.62
206.91	189.38
207.044	19.38
207.178	119.38
207.312	-26.62
207.446	-132.62
207.58	-117.62
207.714	-237.62
207.848	133.38
207.982	-370.62
208.116	69.38
208.25	-220.62
208.384	-190.62
208.518	-164.62
208.652	-250.62
208.786	-258.62
208.92	239.38
209.054	-61.62
209.188	-267.62
209.322	-85.62
209.456	-123.62
209.59	-259.62
209.724	-83.62
209.858	-23.62
209.992	-87.62
210.126	-176.62
210.26	-129.62
210.394	-63.62
210.528	-69.62
210.662	-177.62
210.796	-154.62
210.929	141.38
211.063	14.38
211.197	-60.62
211.331	-18.62
211.465	-194.62
211.599	69.38
211.733	105.38
211.867	-187.62
212.001	-180.62
212.135	-33.62
212.269	-214.62
212.402	-198.62
212.536	84.38
212.67	-118.62
212.804	-238.62
212.938	58.38
213.072	-211.62
213.206	-77.62
213.34	-141.62
213.473	-133.62
213.607	112.38
213.741	-278.62
213.875	-268.62
214.009	-210.62
214.143	-147.62
214.277	-115.62
214.41	-224.62
214.544	240.38
214.678	87.38
214.812	306.38
214.946	-259.62
215.08	-162.62
215.213	-222.62
215.347	-89.62
215.481	-67.62
215.615	-320.62
215.749	50.38
215.882	-242.62
216.016	-291.62
216.15	66.38
216.284	152.38
216.418	6.38
216.551	112.38
216.685	34.38
216.819	-252.62
216.953	-165.62
217.086	268.38
217.22	-136.62
217.354	18.38
217.488	95.38
217.621	97.38
217.755	-14.62
217.889	-113.62
218.023	-56.62
218.156	64.38
218.29	101.38
218.424	198.38
218.558	-240.62
218.691	-377.62
218.825	-110.62
218.959	444.38
219.092	-121.62
219.226	-314.62
219.36	-299.62
219.494	-31.62
219.627	-172.62
219.761	-194.62
219.895	-102.62
220.028	-280.62
220.162	478.38
220.296	143.38
220.429	-11.62
220.563	-40.62
220.697	-19.62
220.83	-205.62
220.964	-165.62
221.098	-242.62
221.231	-244.62
221.365	55.38
221.499	-211.62
221.632	-236.62
221.766	18.38
221.9	-74.62
222.033	88.38
222.167	84.38
222.3	-192.62
222.434	-8.62
222.568	255.38
222.701	-172.62
222.835	-143.62
222.968	-230.62
223.102	-236.62
223.236	-264.62
223.369	19.38
223.503	9.38
223.636	-219.62
223.77	-150.62
223.904	38.38
224.037	-193.62
224.171	100.38
224.304	7.38
224.438	-158.62
224.571	-84.62
224.705	198.38
224.839	-25.62
224.972	-317.62
225.106	-31.62
225.239	-94.62
225.373	53.38
225.506	-70.62
225.64	62.38
225.773	-135.62
225.907	-193.62
226.04	-310.62
226.174	-105.62
226.307	-62.62
226.441	-132.62
226.575	9.38
226.708	184.38
226.842	-78.62
226.975	-147.62
227.109	-196.62
227.242	17.38
227.375	79.38
227.509	-47.62
227.642	-137.62
227.776	63.38
227.909	42.38
228.043	-199.62
228.176	200.38
228.31	-253.62
228.443	332.38
228.577	-62.62
228.71	-103.62
228.844	-10.62
228.977	-279.62
229.111	-186.62
229.244	78.38
229.377	-288.62
229.511	-26.62
229.644	-170.62
229.778	-144.62
229.911	-193.62
230.044	-112.62
230.178	-30.62
230.311	-211.62
230.445	26.38
230.578	-188.62
230.711	-55.62
230.845	329.38
230.978	55.38
231.112	-229.62
231.245	-239.62
231.378	-207.62
231.512	44.38
231.645	-408.62
231.779	-312.62
231.912	-11.62
232.045	60.38
232.179	-150.62
232.312	-139.62
232.445	90.38
232.579	252.38
232.712	140.38
232.845	-179.62
232.979	-347.62
233.112	96.38
233.245	-128.62
233.379	-288.62
233.512	-13.62
233.645	-241.62
233.779	-250.62
233.912	33.38
234.045	-144.62
234.179	51.38
234.312	-153.62
234.445	24.38
234.578	-1.62
234.712	12.38
234.845	58.38
234.978	-162.62
235.112	-45.62
235.245	131.38
235.378	-162.62
235.511	-21.62
235.645	35.38
235.778	21.38
235.911	-138.62
236.044	-283.62
236.178	294.38
236.311	-255.62
236.444	-253.62
236.577	-212.62
236.711	-37.62
236.844	-387.62
236.977	-124.62
237.11	-178.62
237.243	0.38
237.377	-264.62
237.51	-191.62
237.643	956.38
237.776	-139.62
237.909	-139.62
238.043	-3.62
238.176	-203.62
238.309	-87.62
238.442	-281.62
238.575	-78.62
238.709	422.38
238.842	11.38
238.975	-15.62
239.108	185.38
239.241	-281.62
239.374	-237.62
239.508	-180.62
239.641	197.38
239.774	383.38
239.907	-62.62
240.04	-244.62
240.173	49.38
240.306	210.38
240.44	-156.62
240.573	184.38
240.706	-146.62
240.839	7.38
240.972	-82.62
241.105	-64.62
241.238	33.38
241.371	-49.62
241.504	-43.62
241.638	-111.62
241.771	-40.62
241.904	-158.62
242.037	60.38
242.17	-207.62
242.303	-300.62
242.436	-51.62
242.569	-107.62
242.702	-207.62
242.835	-132.62
242.968	-56.62
243.101	-101.62
243.234	-232.62
243.367	-265.62
243.5	-129.62
243.634	-193.62
243.767	-283.62
243.9	-222.62
244.033	-244.62
244.166	68.38
244.299	-305.62
244.432	-241.62
244.565	17.38
244.698	-332.62
244.831	-149.62
244.964	-256.62
245.097	-178.62
245.23	23.38
245.363	147.38
245.496	-277.62
245.629	-146.62
245.762	450.38
245.895	-247.62
246.028	-217.62
246.161	425.38
246.294	83.38
246.427	-225.62
246.559	90.38
246.692	-32.62
246.825	-127.62
246.958	-224.62
247.091	-261.62
247.224	-302.62
247.357	-188.62
247.49	114.38
247.623	-183.62
247.756	-264.62
247.889	285.38
248.022	-112.62
248.155	-274.62
248.288	-96.62
248.421	-216.62
248.553	85.38
248.686	-233.62
248.819	90.38
248.952	-211.62
249.085	182.38
249.218	-44.62
249.351	-95.62
249.484	192.38
249.617	-82.62
249.749	-244.62
249.882	-215.62
250.015	-214.62
250.148	-151.62
250.281	-257.62
250.414	-149.62
250.547	-192.62
250.679	218.38
250.812	-92.62
250.945	9.38
251.078	-239.62
251.211	-171.62
251.344	-291.62
251.476	-157.62
251.609	9.38
251.742	-267.62
251.875	-61.62
252.008	-182.62
252.14	-349.62
252.273	-103.62
252.406	189.38
252.539	-39.62
252.672	-81.62
252.804	140.38
252.937	-257.62
253.07	11.38
253.203	-99.62
253.335	84.38
253.468	-326.62
253.601	-139.62
253.734	-66.62
253.866	-149.62
253.999	415.38
254.132	-17.62
254.265	-134.62
254.397	-183.62
254.53	-153.62
254.663	43.38
254.796	-192.62
254.928	-280.62
255.061	-209.62
255.194	-36.62
255.327	-295.62
255.459	-13.62
255.592	-275.62
255.725	189.38
255.857	-179.62
255.99	7.38
256.123	-276.62
256.255	-243.62
256.388	-57.62
256.521	-231.62
256.653	-287.62
256.786	-232.62
256.919	-175.62
257.051	-243.62
257.184	-23.62
257.317	-202.62
257.449	-248.62
257.582	-74.62
257.715	-196.62
257.847	-228.62
257.98	-96.62
258.113	-167.62
258.245	-111.62
258.378	-345.62
258.51	-260.62
258.643	-239.62
258.776	37.38
258.908	-291.62
259.041	-53.62
259.174	-180.62
259.306	-200.62
259.439	-263.62
259.571	-168.62
259.704	-112.62
259.837	198.38
259.969	-199.62
260.102	-218.62
260.234	235.38
260.367	85.38
260.499	-231.62
260.632	-148.62
260.765	-175.62
260.897	-180.62
261.03	-213.62
261.162	-54.62
261.295	-52.62
261.427	109.38
261.56	-54.62
261.692	-241.62
261.825	-56.62
261.957	88.38
262.09	117.38
262.222	19.38
262.355	-241.62
262.487	-119.62
262.62	-252.62
262.752	-99.62
262.885	-161.62
263.017	10.38
263.15	-200.62
263.282	-65.62
263.415	-260.62
263.547	-27.62
263.68	200.38
263.812	-295.62
263.945	-108.62
264.077	-234.62
264.21	174.38
264.342	-275.62
264.475	-206.62
264.607	169.38
264.74	-380.62
264.872	-102.62
265.004	119.38
265.137	58.38
265.269	353.38
265.402	-280.62
265.534	-190.62
265.667	-167.62
265.799	68.38
265.931	-87.62
266.064	-1.62
266.196	-139.62
266.329	-157.62
266.461	-160.62
266.593	51.38
266.726	-324.62
266.858	-151.62
266.99	-88.62
267.123	-162.62
267.255	-45.62
267.388	-124.62
267.52	-230.62
267.652	-164.62
267.785	113.38
267.917	-3.62
268.049	-134.62
268.182	388.38
268.314	67.38
268.446	-325.62
268.579	-198.62
268.711	185.38
268.843	-221.62
268.976	-59.62
269.108	392.38
269.24	155.38
269.373	-18.62
269.505	-155.62
269.637	-143.62
269.77	-223.62
269.902	143.38
270.034	-250.62
270.167	28.38
270.299	-19.62
270.431	38.38
270.563	-162.62
270.696	11.38
270.828	-106.62
270.96	-80.62
271.092	21.38
271.225	-191.62
271.357	-58.62
271.489	-198.62
271.621	-235.62
271.754	531.38
271.886	-218.62
272.018	-171.62
272.15	298.38
272.283	-262.62
272.415	-161.62
272.547	63.38
272.679	89.38
272.811	-96.62
272.944	-122.62
273.076	-329.62
273.208	-65.62
273.34	-94.62
273.473	-144.62
273.605	95.38
273.737	-268.62
273.869	-39.62
274.001	-395.62
274.133	-7.62
274.266	-193.62
274.398	1478.38
274.53	63.38
274.662	135.38
274.794	27.38
274.926	90.38
275.059	-174.62
275.191	0.38
275.323	-252.62
275.455	105.38
275.587	-228.62
275.719	-172.62
275.851	-98.62
275.983	44.38
276.116	-4.62
276.248	118.38
276.38	-263.62
276.512	-13.62
276.644	-147.62
276.776	-235.62
276.908	-30.62
277.04	-90.62
277.172	50.38
277.304	-169.62
277.437	-20.62
277.569	-205.62
277.701	-216.62
277.833	-114.62
277.965	-179.62
278.097	36.38
278.229	-181.62
278.361	-148.62
278.493	96.38
278.625	189.38
278.757	45.38
278.889	-243.62
279.021	-138.62
279.153	498.38
279.285	-211.62
279.417	584.38
279.549	95.38
279.681	-94.62
279.813	-184.62
279.945	29.38
280.077	-212.62
280.209	1050.38
280.341	-274.62
280.473	-158.62
280.605	102.38
280.737	-25.62
280.869	199.38
281.001	-69.62
281.133	-305.62
281.265	-12.62
281.397	-120.62
281.529	260.38
281.661	-260.62
281.793	-361.62
281.925	-220.62
282.057	-135.62
282.189	-149.62
282.321	-47.62
282.453	23.38
282.585	-214.62
282.717	152.38
282.849	-58.62
282.98	-132.62
283.112	-229.62
283.244	7.38
283.376	-251.62
283.508	-339.62
283.64	-215.62
283.772	114.38
283.904	104.38
284.036	-274.62
284.168	135.38
284.299	-33.62
284.431	-44.62
284.563	-138.62
284.695	-128.62
284.827	-241.62
284.959	4.38
285.091	-224.62
285.222	-253.62
285.354	-176.62
285.486	-101.62
285.618	-246.62
285.75	-116.62
285.882	180.38
286.013	45.38
286.145	-55.62
286.277	8.38
286.409	89.38
286.541	54.38
286.673	-221.62
286.804	-214.62
286.936	-60.62
287.068	-183.62
287.2	-221.62
287.332	303.38
287.463	-284.62
287.595	-46.62
287.727	393.38
287.859	-113.62
287.99	-119.62
288.122	-179.62
288.254	48.38
288.386	-152.62
288.517	-286.62
288.649	-138.62
288.781	-26.62
288.913	-23.62
289.044	-272.62
289.176	199.38
289.308	-169.62
289.44	-346.62
289.571	-173.62
289.703	-251.62
289.835	68.38
289.967	-250.62
290.098	-285.62
290.23	-309.62
290.362	113.38
290.493	-327.62
290.625	-157.62
290.757	-171.62
290.888	-142.62
291.02	-8.62
291.152	-27.62
291.283	-1.62
291.415	-121.62
291.547	-242.62
291.678	-240.62
291.81	-30.62
291.942	288.38
292.073	-49.62
292.205	-287.62
292.337	99.38
292.468	474.38
292.6	-194.62
292.732	639.38
292.863	-193.62
292.995	-323.62
293.126	40.38
293.258	185.38
293.39	-266.62
293.521	-245.62
293.653	-294.62
293.785	73.38
293.916	-147.62
294.048	29.38
294.179	22.38
294.311	-264.62
294.442	50.38
294.574	-260.62
294.706	-117.62
294.837	100.38
294.969	-59.62
295.1	-178.62
295.232	-231.62
295.363	194.38
295.495	-183.62
295.627	5.38
295.758	125.38
295.89	-360.62
296.021	12.38
296.153	29.38
296.284	-65.62
296.416	-115.62
296.547	-164.62
296.679	-54.62
296.81	-31.62
296.942	-316.62
297.073	-284.62
297.205	-291.62
297.336	-163.62
297.468	-247.62
297.599	-43.62
297.731	-357.62
297.862	-135.62
297.994	-330.62
298.125	-271.62
298.257	-112.62
298.388	33.38
298.52	31.38
298.651	-85.62
298.782	295.38
298.914	-238.62
299.045	-149.62
299.177	-290.62
299.308	-302.62
299.44	9.38
299.571	-24.62
299.702	-150.62
299.834	-74.62
299.965	-145.62
300.097	-221.62
300.228	-38.62
300.36	-82.62
300.491	-75.62
300.622	-20.62
300.754	-99.62
300.885	-217.62
301.017	-46.62
301.148	-192.62
301.279	-319.62
301.411	34.38
301.542	-11.62
301.673	-28.62
301.805	3.38
301.936	-218.62
302.067	-111.62
302.199	-185.62
302.33	-220.62
302.461	314.38
302.593	30.38
302.724	-16.62
302.855	-284.62
302.987	-114.62
303.118	-278.62
303.249	-331.62
303.381	-127.62
303.512	-194.62
303.643	-213.62
303.775	140.38
303.906	-246.62
304.037	-255.62
304.169	-210.62
304.3	-122.62
304.431	-285.62
304.562	-195.62
304.694	-153.62
304.825	-44.62
304.956	121.38
305.087	-150.62
305.219	-3.62
305.35	-45.62
305.481	-208.62
305.612	30.38
305.744	-3.62
305.875	-197.62
306.006	509.38
306.137	-226.62
306.269	-40.62
306.4	78.38
306.531	113.38
306.662	-115.62
306.794	108.38
306.925	-176.62
307.056	-268.62
307.187	-45.62
307.318	-121.62
307.45	-130.62
307.581	-231.62
307.712	-222.62
307.843	-72.62
307.974	-77.62
308.105	137.38
308.237	-58.62
308.368	-284.62
308.499	-116.62
308.63	-5.62
308.761	-89.62
308.892	-114.62
309.024	-145.62
309.155	-175.62
309.286	-202.62
309.417	-262.62
309.548	-133.62
309.679	-152.62
309.81	-383.62
309.941	444.38
310.073	-33.62
310.204	-319.62
310.335	-21.62
310.466	-174.62
310.597	-279.62
310.728	-165.62
310.859	358.38
310.99	343.38
311.121	-104.62
311.252	-88.62
311.383	-236.62
311.514	-36.62
311.646	-149.62
311.777	-7.62
311.908	-30.62
312.039	-134.62
312.17	-309.62
312.301	-121.62
312.432	-211.62
312.563	-326.62
312.694	-42.62
312.825	-124.62
312.956	-201.62
313.087	59.38
313.218	88.38
313.349	-120.62
313.48	-328.62
313.611	-114.62
313.742	-88.62
313.873	84.38
314.004	-34.62
314.135	-162.62
314.266	-41.62
314.397	-156.62
314.528	-238.62
314.659	-267.62
314.79	-211.62
314.921	28.38
315.052	36.38
315.183	-268.62
315.314	-287.62
315.445	50.38
315.576	-43.62
315.707	-119.62
315.838	-173.62
315.968	-27.62
316.099	-277.62
316.23	-335.62
316.361	88.38
316.492	-122.62
316.623	74.38
316.754	189.38
316.885	-369.62
317.016	-286.62
317.147	-337.62
317.278	68.38
317.408	-250.62
317.539	-274.62
317.67	-269.62
317.801	-15.62
317.932	-154.62
318.063	-197.62
318.194	-142.62
318.325	0.38
318.455	-331.62
318.586	-149.62
318.717	-21.62
318.848	-337.62
318.979	85.38
319.11	285.38
319.24	36.38
319.371	11.38
319.502	-88.62
319.633	-201.62
319.764	-126.62
319.895	-248.62
320.025	-80.62
320.156	-306.62
320.287	-393.62
320.418	-198.62
320.549	-67.62
320.679	-316.62
320.81	118.38
320.941	-333.62
321.072	-324.62
321.202	-37.62
321.333	228.38
321.464	-385.62
321.595	-227.62
321.726	253.38
321.856	-345.62
321.987	-157.62
322.118	-240.62
322.249	-31.62
322.379	-50.62
322.51	4.38
322.641	-34.62
322.771	-291.62
322.902	-81.62
323.033	-85.62
323.164	706.38
323.294	-171.62
323.425	-209.62
323.556	-191.62
323.686	-82.62
323.817	291.38
323.948	-26.62
324.078	-126.62
324.209	168.38
324.34	-171.62
324.47	205.38
324.601	-206.62
324.732	-13.62
324.862	23.38
324.993	-209.62
325.124	-417.62
325.254	-57.62
325.385	-94.62
325.516	503.38
325.646	381.38
325.777	-164.62
325.908	-155.62
326.038	40.38
326.169	-139.62
326.299	-64.62
326.43	109.38
326.561	-112.62
326.691	-142.62
326.822	-245.62
326.952	-188.62
327.083	-44.62
327.214	-232.62
327.344	-74.62
327.475	-5.62
327.605	-36.62
327.736	-149.62
327.867	-296.62
327.997	-135.62
328.128	-70.62
328.258	-325.62
328.389	274.38
328.519	-275.62
328.65	18.38
328.78	-211.62
328.911	-11.62
329.041	100.38
329.172	-348.62
329.303	-201.62
329.433	-145.62
329.564	-265.62
329.694	-233.62
329.825	-231.62
329.955	7.38
330.086	451.38
330.216	-126.62
330.347	-264.62
330.477	-115.62
330.608	-106.62
330.738	-115.62
330.868	-301.62
330.999	-170.62
331.129	147.38
331.26	-217.62
331.39	-208.62
331.521	272.38
331.651	48.38
331.782	-330.62
331.912	-283.62
332.043	-244.62
332.173	50.38
332.303	-325.62
332.434	117.38
332.564	-12.62
332.695	-184.62
332.825	-352.62
332.956	-203.62
333.086	-132.62
333.216	-253.62
333.347	-55.62
333.477	-389.62
333.608	-84.62
333.738	-3.62
333.868	-89.62
333.999	-59.62
334.129	107.38
334.259	-66.62
334.39	-200.62
334.52	18.38
334.65	-166.62
334.781	130.38
334.911	-203.62
335.042	-236.62
335.172	-47.62
335.302	-137.62
335.433	272.38
335.563	-244.62
335.693	-4.62
335.824	269.38
335.954	-377.62
336.084	-30.62
336.214	-32.62
336.345	295.38
336.475	62.38
336.605	-228.62
336.736	322.38
336.866	-101.62
336.996	-145.62
337.126	-254.62
337.257	-80.62
337.387	-328.62
337.517	-209.62
337.648	-341.62
337.778	162.38
337.908	81.38
338.038	43.38
338.169	-164.62
338.299	240.38
338.429	-46.62
338.559	-234.62
338.69	-188.62
338.82	389.38
338.95	-21.62
339.08	-431.62
339.21	-300.62
339.341	-95.62
339.471	31.38
339.601	-108.62
339.731	-53.62
339.861	-150.62
339.992	-140.62
340.122	-116.62
340.252	-204.62
340.382	-174.62
340.512	-80.62
340.642	156.38
340.773	-69.62
340.903	-305.62
341.033	-100.62
341.163	-23.62
341.293	96.38
341.423	-206.62
341.554	-279.62
341.684	-33.62
341.814	-112.62
341.944	-166.62
342.074	-85.62
342.204	-192.62
342.334	185.38
342.464	-276.62
342.595	-154.62
342.725	-310.62
342.855	-71.62
342.985	-156.62
343.115	-274.62
343.245	-377.62
343.375	9.38
343.505	-98.62
343.635	-0.62
343.765	-178.62
343.895	-345.62
344.025	45.38
344.155	-278.62
344.286	-179.62
344.416	-53.62
344.546	117.38
344.676	-93.62
344.806	177.38
344.936	-77.62
345.066	180.38
345.196	-243.62
345.326	-309.62
345.456	111.38
345.586	-240.62
345.716	-296.62
345.846	44.38
345.976	-343.62
346.106	-86.62
346.236	62.38
346.366	1.38
346.496	-194.62
346.626	-148.62
346.756	-191.62
346.886	-229.62
347.016	-330.62
347.146	-196.62
347.276	-266.62
347.406	-190.62
347.536	-62.62
347.666	114.38
347.795	-251.62
347.925	-170.62
348.055	106.38
348.185	-153.62
348.315	-187.62
348.445	99.38
348.575	-166.62
348.705	-254.62
348.835	-249.62
348.965	-182.62
349.095	39.38
349.225	255.38
349.354	-229.62
349.484	-188.62
349.614	-150.62
349.744	-239.62
349.874	-224.62
350.004	-317.62
350.134	-233.62
350.264	-337.62
350.393	-273.62
350.523	158.38
350.653	-320.62
350.783	7.38
350.913	170.38
351.043	-235.62
351.173	-208.62
351.302	-24.62
351.432	183.38
351.562	-98.62
351.692	-60.62
351.822	-150.62
351.951	-349.62
352.081	202.38
352.211	-104.62
352.341	178.38
352.471	139.38
352.6	-156.62
352.73	-201.62
352.86	-150.62
352.99	-5.62
353.12	-70.62
353.249	-24.62
353.379	-229.62
353.509	74.38
353.639	-293.62
353.768	-78.62
353.898	-225.62
354.028	-305.62
354.158	-195.62
354.287	-196.62
354.417	-273.62
354.547	-241.62
354.677	-354.62
354.806	-132.62
354.936	-16.62
355.066	-212.62
355.195	-11.62
355.325	-29.62
355.455	-228.62
355.584	179.38
355.714	-240.62
355.844	149.38
355.974	-31.62
356.103	-108.62
356.233	-157.62
356.363	26.38
356.492	-239.62
356.622	-289.62
356.752	-18.62
356.881	-330.62
357.011	60.38
357.14	121.38
357.27	-162.62
357.4	60.38
357.529	-127.62
357.659	139.38
357.789	34.38
357.918	-298.62
358.048	-347.62
358.177	-137.62
358.307	-262.62
358.437	-100.62
358.566	-244.62
358.696	62.38
358.825	112.38
358.955	-308.62
359.085	0.38
359.214	-389.62
359.344	-84.62
359.473	-274.62
359.603	-151.62
359.733	-207.62
359.862	-330.62
359.992	86.38
360.121	-172.62
360.251	34.38
360.38	-301.62
360.51	111.38
360.639	-175.62
360.769	-44.62
360.898	98.38
361.028	68.38
361.157	-80.62
361.287	-41.62
361.416	-249.62
361.546	-120.62
361.675	-141.62
361.805	-191.62
361.934	48.38
362.064	-153.62
362.193	-196.62
362.323	-262.62
362.452	92.38
362.582	-244.62
362.711	-131.62
362.841	35.38
362.97	-14.62
363.1	-266.62
363.229	-300.62
363.359	-115.62
363.488	-229.62
363.617	-79.62
363.747	-79.62
363.876	-379.62
364.006	-35.62
364.135	-131.62
364.265	-114.62
364.394	-182.62
364.523	282.38
364.653	-262.62
364.782	-15.62
364.912	-274.62
365.041	-291.62
365.17	-255.62
365.3	14.38
365.429	159.38
365.558	-177.62
365.688	-228.62
365.817	-244.62
365.947	-35.62
366.076	-50.62
366.205	-98.62
366.335	-372.62
366.464	-233.62
366.593	112.38
