Data from HR4D30811__2__00002.txt Node

Date: Fri Jan 26 16:31:42 MST 2024
User: Brock
Spectrometer: HR4D3081
Trigger mode: 4
Integration Time (sec): 8.000000E0
Scans to average: 1
Electric dark correction enabled: true
Nonlinearity correction enabled: false
Boxcar width: 0
XAxis mode: Wavelengths
Number of Pixels in Spectrum: 3648
>>>>>Begin Spectral Data<<<<<
197.25	-1193.69
197.385	-1193.69
197.519	-1193.69
197.653	-1209.69
197.787	184.31
197.922	-128.69
198.056	60.31
198.19	3.31
198.324	-8.69
198.459	-210.69
198.593	437.31
198.727	-7.69
198.861	-94.69
198.996	205.31
199.13	-273.69
199.264	-209.69
199.398	-55.69
199.533	283.31
199.667	138.31
199.801	-92.69
199.935	-265.69
200.07	-4.69
200.204	-13.69
200.338	-185.69
200.472	-183.69
200.606	-332.69
200.741	-140.69
200.875	-99.69
201.009	-139.69
201.143	-193.69
201.277	80.31
201.412	92.31
201.546	263.31
201.68	162.31
201.814	-150.69
201.948	62.31
202.082	-40.69
202.217	-322.69
202.351	-125.69
202.485	-10.69
202.619	-234.69
202.753	-317.69
202.887	292.31
203.021	171.31
203.156	224.31
203.29	54.31
203.424	-46.69
203.558	-144.69
203.692	-72.69
203.826	-302.69
203.96	-93.69
204.094	184.31
204.229	-185.69
204.363	-204.69
204.497	-314.69
204.631	-298.69
204.765	-178.69
204.899	-128.69
205.033	-148.69
205.167	-221.69
205.301	12.31
205.435	-311.69
205.569	-100.69
205.704	-55.69
205.838	-290.69
205.972	-140.69
206.106	534.31
206.24	-140.69
206.374	-209.69
206.508	31.31
206.642	19.31
206.776	-46.69
206.91	156.31
207.044	5.31
207.178	115.31
207.312	1.31
207.446	-152.69
207.58	-158.69
207.714	-260.69
207.848	174.31
207.982	-353.69
208.116	28.31
208.25	-229.69
208.384	-160.69
208.518	-150.69
208.652	-223.69
208.786	-263.69
208.92	226.31
209.054	-51.69
209.188	-256.69
209.322	-106.69
209.456	-119.69
209.59	-285.69
209.724	-89.69
209.858	-18.69
209.992	-74.69
210.126	-177.69
210.26	-133.69
210.394	-88.69
210.528	-27.69
210.662	-208.69
210.796	-141.69
210.929	143.31
211.063	-15.69
211.197	-86.69
211.331	-30.69
211.465	-189.69
211.599	62.31
211.733	126.31
211.867	-157.69
212.001	-158.69
212.135	-21.69
212.269	-236.69
212.402	-178.69
212.536	82.31
212.67	-128.69
212.804	-248.69
212.938	85.31
213.072	-203.69
213.206	-58.69
213.34	-147.69
213.473	-111.69
213.607	114.31
213.741	-261.69
213.875	-276.69
214.009	-212.69
214.143	-127.69
214.277	-112.69
214.41	-206.69
214.544	261.31
214.678	152.31
214.812	263.31
214.946	-239.69
215.08	-183.69
215.213	-211.69
215.347	-113.69
215.481	-79.69
215.615	-335.69
215.749	16.31
215.882	-247.69
216.016	-286.69
216.15	87.31
216.284	174.31
216.418	18.31
216.551	113.31
216.685	44.31
216.819	-254.69
216.953	-149.69
217.086	271.31
217.22	-176.69
217.354	-11.69
217.488	56.31
217.621	78.31
217.755	-28.69
217.889	-139.69
218.023	-60.69
218.156	99.31
218.29	69.31
218.424	197.31
218.558	-248.69
218.691	-356.69
218.825	-81.69
218.959	440.31
219.092	-118.69
219.226	-343.69
219.36	-305.69
219.494	-16.69
219.627	-170.69
219.761	-196.69
219.895	-86.69
220.028	-288.69
220.162	530.31
220.296	133.31
220.429	-6.69
220.563	-63.69
220.697	-15.69
220.83	-223.69
220.964	-161.69
221.098	-259.69
221.231	-235.69
221.365	65.31
221.499	-199.69
221.632	-250.69
221.766	53.31
221.9	-110.69
222.033	110.31
222.167	94.31
222.3	-188.69
222.434	-5.69
222.568	287.31
222.701	-160.69
222.835	-111.69
222.968	-223.69
223.102	-223.69
223.236	-252.69
223.369	18.31
223.503	13.31
223.636	-241.69
223.77	-158.69
223.904	10.31
224.037	-172.69
224.171	108.31
224.304	26.31
224.438	-172.69
224.571	-101.69
224.705	170.31
224.839	-36.69
224.972	-318.69
225.106	-15.69
225.239	-115.69
225.373	78.31
225.506	-100.69
225.64	71.31
225.773	-140.69
225.907	-177.69
226.04	-323.69
226.174	-121.69
226.307	-45.69
226.441	-138.69
226.575	26.31
226.708	173.31
226.842	-96.69
226.975	-137.69
227.109	-219.69
227.242	24.31
227.375	54.31
227.509	-35.69
227.642	-139.69
227.776	40.31
227.909	76.31
228.043	-244.69
228.176	215.31
228.31	-246.69
228.443	358.31
228.577	-73.69
228.71	-145.69
228.844	20.31
228.977	-259.69
229.111	-165.69
229.244	54.31
229.377	-293.69
229.511	-28.69
229.644	-188.69
229.778	-144.69
229.911	-203.69
230.044	-121.69
230.178	-12.69
230.311	-205.69
230.445	56.31
230.578	-193.69
230.711	-83.69
230.845	327.31
230.978	47.31
231.112	-212.69
231.245	-235.69
231.378	-216.69
231.512	55.31
231.645	-393.69
231.779	-314.69
231.912	-23.69
232.045	44.31
232.179	-207.69
232.312	-135.69
232.445	101.31
232.579	275.31
232.712	150.31
232.845	-187.69
232.979	-348.69
233.112	72.31
233.245	-106.69
233.379	-290.69
233.512	22.31
233.645	-231.69
233.779	-220.69
233.912	16.31
234.045	-153.69
234.179	36.31
234.312	-136.69
234.445	37.31
234.578	1.31
234.712	19.31
234.845	57.31
234.978	-180.69
235.112	-57.69
235.245	120.31
235.378	-183.69
235.511	-2.69
235.645	39.31
235.778	-21.69
235.911	-164.69
236.044	-286.69
236.178	293.31
236.311	-249.69
236.444	-225.69
236.577	-217.69
236.711	-49.69
236.844	-390.69
236.977	-122.69
237.11	-165.69
237.243	27.31
237.377	-270.69
237.51	-233.69
237.643	945.31
237.776	-155.69
237.909	-126.69
238.043	-3.69
238.176	-228.69
238.309	-77.69
238.442	-304.69
238.575	-110.69
238.709	403.31
238.842	23.31
238.975	-23.69
239.108	183.31
239.241	-299.69
239.374	-225.69
239.508	-223.69
239.641	208.31
239.774	349.31
239.907	-65.69
240.04	-280.69
240.173	42.31
240.306	231.31
240.44	-156.69
240.573	186.31
240.706	-139.69
240.839	-2.69
240.972	-64.69
241.105	-37.69
241.238	43.31
241.371	-20.69
241.504	-54.69
241.638	-116.69
241.771	22.31
241.904	-148.69
242.037	45.31
242.17	-175.69
242.303	-317.69
242.436	-87.69
242.569	-108.69
242.702	-203.69
242.835	-165.69
242.968	-16.69
243.101	-109.69
243.234	-220.69
243.367	-241.69
243.5	-111.69
243.634	-154.69
243.767	-283.69
243.9	-218.69
244.033	-242.69
244.166	78.31
244.299	-327.69
244.432	-234.69
244.565	5.31
244.698	-324.69
244.831	-158.69
244.964	-259.69
245.097	-185.69
245.23	9.31
245.363	146.31
245.496	-244.69
245.629	-153.69
245.762	459.31
245.895	-240.69
246.028	-196.69
246.161	451.31
246.294	20.31
246.427	-232.69
246.559	108.31
246.692	-37.69
246.825	-148.69
246.958	-242.69
247.091	-303.69
247.224	-299.69
247.357	-211.69
247.49	114.31
247.623	-176.69
247.756	-234.69
247.889	285.31
248.022	-86.69
248.155	-271.69
248.288	-81.69
248.421	-227.69
248.553	51.31
248.686	-231.69
248.819	69.31
248.952	-250.69
249.085	190.31
249.218	-35.69
249.351	-83.69
249.484	182.31
249.617	-85.69
249.749	-277.69
249.882	-209.69
250.015	-219.69
250.148	-165.69
250.281	-241.69
250.414	-152.69
250.547	-147.69
250.679	219.31
250.812	-85.69
250.945	19.31
251.078	-214.69
251.211	-147.69
251.344	-277.69
251.476	-158.69
251.609	20.31
251.742	-276.69
251.875	-87.69
252.008	-194.69
252.14	-315.69
252.273	-107.69
252.406	182.31
252.539	-28.69
252.672	-57.69
252.804	149.31
252.937	-254.69
253.07	-36.69
253.203	-95.69
253.335	91.31
253.468	-360.69
253.601	-126.69
253.734	-65.69
253.866	-154.69
253.999	372.31
254.132	-5.69
254.265	-140.69
254.397	-174.69
254.53	-131.69
254.663	33.31
254.796	-204.69
254.928	-267.69
255.061	-229.69
255.194	-68.69
255.327	-289.69
255.459	-33.69
255.592	-257.69
255.725	176.31
255.857	-212.69
255.99	5.31
256.123	-243.69
256.255	-246.69
256.388	-80.69
256.521	-235.69
256.653	-296.69
256.786	-232.69
256.919	-171.69
257.051	-245.69
257.184	1.31
257.317	-222.69
257.449	-231.69
257.582	-94.69
257.715	-183.69
257.847	-217.69
257.98	-93.69
258.113	-209.69
258.245	-136.69
258.378	-350.69
258.51	-242.69
258.643	-240.69
258.776	26.31
258.908	-260.69
259.041	-104.69
259.174	-169.69
259.306	-199.69
259.439	-294.69
259.571	-191.69
259.704	-102.69
259.837	162.31
259.969	-242.69
260.102	-217.69
260.234	227.31
260.367	65.31
260.499	-206.69
260.632	-145.69
260.765	-188.69
260.897	-191.69
261.03	-241.69
261.162	-59.69
261.295	-93.69
261.427	92.31
261.56	-89.69
261.692	-252.69
261.825	-48.69
261.957	88.31
262.09	90.31
262.222	39.31
262.355	-254.69
262.487	-121.69
262.62	-278.69
262.752	-82.69
262.885	-150.69
263.017	19.31
263.15	-202.69
263.282	-75.69
263.415	-263.69
263.547	-15.69
263.68	225.31
263.812	-312.69
263.945	-95.69
264.077	-274.69
264.21	185.31
264.342	-273.69
264.475	-207.69
264.607	148.31
264.74	-386.69
264.872	-67.69
265.004	141.31
265.137	63.31
265.269	369.31
265.402	-225.69
265.534	-181.69
265.667	-161.69
265.799	84.31
265.931	-94.69
266.064	26.31
266.196	-110.69
266.329	-177.69
266.461	-158.69
266.593	40.31
266.726	-326.69
266.858	-171.69
266.99	-86.69
267.123	-156.69
267.255	-48.69
267.388	-130.69
267.52	-231.69
267.652	-202.69
267.785	142.31
267.917	12.31
268.049	-153.69
268.182	419.31
268.314	87.31
268.446	-331.69
268.579	-190.69
268.711	202.31
268.843	-206.69
268.976	-70.69
269.108	358.31
269.24	142.31
269.373	-11.69
269.505	-143.69
269.637	-128.69
269.77	-224.69
269.902	169.31
270.034	-261.69
270.167	46.31
270.299	-0.69
270.431	2.31
270.563	-189.69
270.696	34.31
270.828	-80.69
270.96	-66.69
271.092	17.31
271.225	-263.69
271.357	-89.69
271.489	-188.69
271.621	-248.69
271.754	542.31
271.886	-199.69
272.018	-163.69
272.15	298.31
272.283	-259.69
272.415	-166.69
272.547	60.31
272.679	113.31
272.811	-73.69
272.944	-114.69
273.076	-353.69
273.208	-20.69
273.34	-41.69
273.473	-127.69
273.605	73.31
273.737	-256.69
273.869	-15.69
274.001	-405.69
274.133	9.31
274.266	-206.69
274.398	1460.31
274.53	59.31
274.662	138.31
274.794	6.31
274.926	67.31
275.059	-160.69
275.191	12.31
275.323	-241.69
275.455	87.31
275.587	-208.69
275.719	-140.69
275.851	-111.69
275.983	41.31
276.116	0.31
276.248	108.31
276.38	-247.69
276.512	2.31
276.644	-165.69
276.776	-232.69
276.908	-30.69
277.04	-93.69
277.172	34.31
277.304	-188.69
277.437	7.31
277.569	-201.69
277.701	-213.69
277.833	-63.69
277.965	-162.69
278.097	43.31
278.229	-171.69
278.361	-146.69
278.493	97.31
278.625	240.31
278.757	-20.69
278.889	-242.69
279.021	-149.69
279.153	490.31
279.285	-243.69
279.417	575.31
279.549	76.31
279.681	-124.69
279.813	-179.69
279.945	55.31
280.077	-188.69
280.209	1109.31
280.341	-269.69
280.473	-112.69
280.605	63.31
280.737	-20.69
280.869	234.31
281.001	-53.69
281.133	-303.69
281.265	-36.69
281.397	-133.69
281.529	277.31
281.661	-261.69
281.793	-358.69
281.925	-213.69
282.057	-140.69
282.189	-163.69
282.321	-18.69
282.453	20.31
282.585	-247.69
282.717	129.31
282.849	-84.69
282.98	-161.69
283.112	-220.69
283.244	-18.69
283.376	-239.69
283.508	-351.69
283.64	-249.69
283.772	115.31
283.904	88.31
284.036	-258.69
284.168	102.31
284.299	-63.69
284.431	-17.69
284.563	-128.69
284.695	-132.69
284.827	-239.69
284.959	7.31
285.091	-230.69
285.222	-292.69
285.354	-176.69
285.486	-100.69
285.618	-231.69
285.75	-103.69
285.882	168.31
286.013	48.31
286.145	-55.69
286.277	10.31
286.409	76.31
286.541	37.31
286.673	-239.69
286.804	-219.69
286.936	-68.69
287.068	-182.69
287.2	-251.69
287.332	319.31
287.463	-296.69
287.595	-34.69
287.727	391.31
287.859	-104.69
287.99	-117.69
288.122	-178.69
288.254	43.31
288.386	-148.69
288.517	-287.69
288.649	-131.69
288.781	-7.69
288.913	-28.69
289.044	-279.69
289.176	204.31
289.308	-183.69
289.44	-355.69
289.571	-204.69
289.703	-266.69
289.835	70.31
289.967	-241.69
290.098	-306.69
290.23	-303.69
290.362	116.31
290.493	-326.69
290.625	-205.69
290.757	-172.69
290.888	-100.69
291.02	-9.69
291.152	-49.69
291.283	-10.69
291.415	-124.69
291.547	-259.69
291.678	-232.69
291.81	-31.69
291.942	284.31
292.073	-22.69
292.205	-279.69
292.337	62.31
292.468	514.31
292.6	-201.69
292.732	606.31
292.863	-240.69
292.995	-313.69
293.126	43.31
293.258	203.31
293.39	-282.69
293.521	-231.69
293.653	-310.69
293.785	95.31
293.916	-163.69
294.048	61.31
294.179	17.31
294.311	-237.69
294.442	64.31
294.574	-279.69
294.706	-84.69
294.837	65.31
294.969	-50.69
295.1	-215.69
295.232	-226.69
295.363	189.31
295.495	-161.69
295.627	-13.69
295.758	139.31
295.89	-371.69
296.021	32.31
296.153	48.31
296.284	-49.69
296.416	-123.69
296.547	-180.69
296.679	-55.69
296.81	-48.69
296.942	-334.69
297.073	-271.69
297.205	-281.69
297.336	-178.69
297.468	-239.69
297.599	-60.69
297.731	-342.69
297.862	-97.69
297.994	-323.69
298.125	-249.69
298.257	-107.69
298.388	27.31
298.52	-8.69
298.651	-79.69
298.782	275.31
298.914	-253.69
299.045	-163.69
299.177	-306.69
299.308	-321.69
299.44	6.31
299.571	-49.69
299.702	-156.69
299.834	-109.69
299.965	-139.69
300.097	-251.69
300.228	-33.69
300.36	-76.69
300.491	-90.69
300.622	14.31
300.754	-152.69
300.885	-198.69
301.017	-32.69
301.148	-163.69
301.279	-333.69
301.411	17.31
301.542	-19.69
301.673	-67.69
301.805	2.31
301.936	-228.69
302.067	-107.69
302.199	-157.69
302.33	-266.69
302.461	314.31
302.593	10.31
302.724	-0.69
302.855	-303.69
302.987	-108.69
303.118	-293.69
303.249	-314.69
303.381	-135.69
303.512	-202.69
303.643	-225.69
303.775	103.31
303.906	-258.69
304.037	-262.69
304.169	-221.69
304.3	-174.69
304.431	-272.69
304.562	-211.69
304.694	-144.69
304.825	-35.69
304.956	131.31
305.087	-168.69
305.219	41.31
305.35	-60.69
305.481	-223.69
305.612	36.31
305.744	2.31
305.875	-165.69
306.006	528.31
306.137	-200.69
306.269	-28.69
306.4	53.31
306.531	116.31
306.662	-126.69
306.794	115.31
306.925	-216.69
307.056	-246.69
307.187	-20.69
307.318	-105.69
307.45	-149.69
307.581	-228.69
307.712	-238.69
307.843	-90.69
307.974	-63.69
308.105	134.31
308.237	-53.69
308.368	-290.69
308.499	-127.69
308.63	5.31
308.761	-103.69
308.892	-104.69
309.024	-153.69
309.155	-157.69
309.286	-151.69
309.417	-253.69
309.548	-153.69
309.679	-125.69
309.81	-400.69
309.941	430.31
310.073	-31.69
310.204	-320.69
310.335	-4.69
310.466	-143.69
310.597	-269.69
310.728	-152.69
310.859	365.31
310.99	303.31
311.121	-75.69
311.252	-59.69
311.383	-250.69
311.514	-63.69
311.646	-170.69
311.777	-50.69
311.908	-32.69
312.039	-135.69
312.17	-329.69
312.301	-114.69
312.432	-201.69
312.563	-315.69
312.694	-38.69
312.825	-149.69
312.956	-183.69
313.087	35.31
313.218	65.31
313.349	-110.69
313.48	-332.69
313.611	-123.69
313.742	-88.69
313.873	54.31
314.004	-22.69
314.135	-172.69
314.266	-35.69
314.397	-149.69
314.528	-251.69
314.659	-265.69
314.79	-202.69
314.921	54.31
315.052	47.31
315.183	-265.69
315.314	-299.69
315.445	51.31
315.576	-47.69
315.707	-132.69
315.838	-164.69
315.968	-28.69
316.099	-259.69
316.23	-284.69
316.361	88.31
316.492	-110.69
316.623	67.31
316.754	173.31
316.885	-366.69
317.016	-328.69
317.147	-335.69
317.278	87.31
317.408	-221.69
317.539	-278.69
317.67	-281.69
317.801	-9.69
317.932	-155.69
318.063	-206.69
318.194	-194.69
318.325	20.31
318.455	-345.69
318.586	-149.69
318.717	-13.69
318.848	-309.69
318.979	84.31
319.11	268.31
319.24	26.31
319.371	45.31
319.502	-92.69
319.633	-212.69
319.764	-121.69
319.895	-260.69
320.025	-80.69
320.156	-282.69
320.287	-405.69
320.418	-222.69
320.549	-47.69
320.679	-294.69
320.81	143.31
320.941	-326.69
321.072	-298.69
321.202	-5.69
321.333	255.31
321.464	-380.69
321.595	-263.69
321.726	227.31
321.856	-357.69
321.987	-142.69
322.118	-206.69
322.249	0.31
322.379	-55.69
322.51	10.31
322.641	-57.69
322.771	-325.69
322.902	-97.69
323.033	-95.69
323.164	687.31
323.294	-164.69
323.425	-232.69
323.556	-199.69
323.686	-123.69
323.817	285.31
323.948	-18.69
324.078	-143.69
324.209	136.31
324.34	-218.69
324.47	189.31
324.601	-199.69
324.732	-63.69
324.862	19.31
324.993	-198.69
325.124	-416.69
325.254	-55.69
325.385	-49.69
325.516	507.31
325.646	375.31
325.777	-131.69
325.908	-147.69
326.038	55.31
326.169	-124.69
326.299	-37.69
326.43	139.31
326.561	-109.69
326.691	-148.69
326.822	-256.69
326.952	-190.69
327.083	-57.69
327.214	-282.69
327.344	-84.69
327.475	-3.69
327.605	-57.69
327.736	-163.69
327.867	-284.69
327.997	-135.69
328.128	-29.69
328.258	-343.69
328.389	245.31
328.519	-281.69
328.65	53.31
328.78	-240.69
328.911	-32.69
329.041	78.31
329.172	-344.69
329.303	-213.69
329.433	-181.69
329.564	-248.69
329.694	-230.69
329.825	-203.69
329.955	-49.69
330.086	433.31
330.216	-144.69
330.347	-280.69
330.477	-123.69
330.608	-112.69
330.738	-116.69
330.868	-286.69
330.999	-154.69
331.129	134.31
331.26	-238.69
331.39	-177.69
331.521	187.31
331.651	22.31
331.782	-336.69
331.912	-288.69
332.043	-245.69
332.173	71.31
332.303	-338.69
332.434	114.31
332.564	-5.69
332.695	-209.69
332.825	-321.69
332.956	-189.69
333.086	-107.69
333.216	-269.69
333.347	-22.69
333.477	-412.69
333.608	-75.69
333.738	33.31
333.868	-115.69
333.999	-72.69
334.129	114.31
334.259	-72.69
334.39	-223.69
334.52	61.31
334.65	-152.69
334.781	160.31
334.911	-185.69
335.042	-256.69
335.172	-39.69
335.302	-126.69
335.433	283.31
335.563	-249.69
335.693	27.31
335.824	237.31
335.954	-339.69
336.084	8.31
336.214	-36.69
336.345	325.31
336.475	60.31
336.605	-212.69
336.736	313.31
336.866	-124.69
336.996	-158.69
337.126	-255.69
337.257	-46.69
337.387	-348.69
337.517	-228.69
337.648	-337.69
337.778	170.31
337.908	65.31
338.038	18.31
338.169	-174.69
338.299	237.31
338.429	-33.69
338.559	-240.69
338.69	-164.69
338.82	385.31
338.95	-19.69
339.08	-433.69
339.21	-316.69
339.341	-86.69
339.471	45.31
339.601	-108.69
339.731	-44.69
339.861	-163.69
339.992	-93.69
340.122	-109.69
340.252	-199.69
340.382	-199.69
340.512	-78.69
340.642	179.31
340.773	-74.69
340.903	-280.69
341.033	-115.69
341.163	-28.69
341.293	143.31
341.423	-200.69
341.554	-305.69
341.684	-23.69
341.814	-101.69
341.944	-178.69
342.074	-100.69
342.204	-130.69
342.334	184.31
342.464	-259.69
342.595	-156.69
342.725	-310.69
342.855	-26.69
342.985	-140.69
343.115	-270.69
343.245	-353.69
343.375	2.31
343.505	-109.69
343.635	2.31
343.765	-182.69
343.895	-389.69
344.025	52.31
344.155	-298.69
344.286	-162.69
344.416	-58.69
344.546	118.31
344.676	-84.69
344.806	125.31
344.936	-38.69
345.066	171.31
345.196	-234.69
345.326	-306.69
345.456	81.31
345.586	-238.69
345.716	-260.69
345.846	48.31
345.976	-338.69
346.106	-110.69
346.236	72.31
346.366	15.31
346.496	-161.69
346.626	-139.69
346.756	-186.69
346.886	-208.69
347.016	-335.69
347.146	-196.69
347.276	-266.69
347.406	-208.69
347.536	-52.69
347.666	105.31
347.795	-247.69
347.925	-136.69
348.055	120.31
348.185	-150.69
348.315	-182.69
348.445	109.31
348.575	-198.69
348.705	-250.69
348.835	-251.69
348.965	-155.69
349.095	-4.69
349.225	266.31
349.354	-249.69
349.484	-145.69
349.614	-144.69
349.744	-261.69
349.874	-253.69
350.004	-362.69
350.134	-268.69
350.264	-336.69
350.393	-301.69
350.523	134.31
350.653	-314.69
350.783	58.31
350.913	162.31
351.043	-221.69
351.173	-162.69
351.302	26.31
351.432	218.31
351.562	-75.69
351.692	-90.69
351.822	-148.69
351.951	-359.69
352.081	201.31
352.211	-108.69
352.341	179.31
352.471	120.31
352.6	-123.69
352.73	-182.69
352.86	-121.69
352.99	-3.69
353.12	-81.69
353.249	-16.69
353.379	-243.69
353.509	47.31
353.639	-298.69
353.768	-66.69
353.898	-224.69
354.028	-285.69
354.158	-151.69
354.287	-189.69
354.417	-274.69
354.547	-236.69
354.677	-373.69
354.806	-131.69
354.936	19.31
355.066	-195.69
355.195	-28.69
355.325	-10.69
355.455	-224.69
355.584	174.31
355.714	-235.69
355.844	109.31
355.974	-7.69
356.103	-99.69
356.233	-156.69
356.363	27.31
356.492	-256.69
356.622	-287.69
356.752	-48.69
356.881	-359.69
357.011	47.31
357.14	114.31
357.27	-170.69
357.4	78.31
357.529	-137.69
357.659	139.31
357.789	47.31
357.918	-310.69
358.048	-340.69
358.177	-140.69
358.307	-242.69
358.437	-69.69
358.566	-255.69
358.696	60.31
358.825	111.31
358.955	-299.69
359.085	36.31
359.214	-391.69
359.344	-111.69
359.473	-285.69
359.603	-156.69
359.733	-194.69
359.862	-322.69
359.992	54.31
360.121	-172.69
360.251	17.31
360.38	-317.69
360.51	83.31
360.639	-174.69
360.769	-75.69
360.898	69.31
361.028	57.31
361.157	-112.69
361.287	-19.69
361.416	-236.69
361.546	-119.69
361.675	-140.69
361.805	-164.69
361.934	26.31
362.064	-161.69
362.193	-201.69
362.323	-271.69
362.452	122.31
362.582	-229.69
362.711	-139.69
362.841	-6.69
362.97	17.31
363.1	-264.69
363.229	-320.69
363.359	-107.69
363.488	-232.69
363.617	-117.69
363.747	-86.69
363.876	-361.69
364.006	-45.69
364.135	-94.69
364.265	-174.69
364.394	-209.69
364.523	274.31
364.653	-240.69
364.782	-2.69
364.912	-253.69
365.041	-304.69
365.17	-263.69
365.3	-38.69
365.429	176.31
365.558	-142.69
365.688	-214.69
365.817	-253.69
365.947	-99.69
366.076	-35.69
366.205	-72.69
366.335	-337.69
366.464	-268.69
366.593	92.31
366.723	-121.69
